Timestamp,TP9,AF7,AF8,TP10,RightAUX

1732201843.109069,-25.390625,-169.921875,-621.58203125,-46.875,0.0
1732201843.1129746,-12.6953125,-170.41015625,-634.27734375,-39.55078125,0.0
1732201843.1168802,-1.953125,-156.73828125,-557.6171875,-54.19921875,0.0
1732201843.1207857,-28.80859375,-166.9921875,-627.9296875,-69.3359375,0.0
1732201843.1246912,-81.0546875,-191.89453125,-740.72265625,-77.63671875,0.0
1732201843.1285965,-98.6328125,-194.82421875,-724.609375,-60.05859375,0.0
1732201843.132502,-56.15234375,-172.36328125,-659.66796875,-34.1796875,0.0
1732201843.1364076,-80.56640625,-161.62109375,-662.59765625,-37.59765625,0.0
1732201843.1403131,-132.32421875,-206.0546875,-793.45703125,-68.359375,0.0
1732201843.1442187,-126.46484375,-217.7734375,-879.8828125,-79.58984375,0.0
1732201843.1481242,-138.671875,-160.15625,-714.84375,-65.91796875,0.0
1732201843.1520298,-240.234375,-161.62109375,-673.828125,-46.38671875,0.0
1732201843.1559424,-150.390625,-162.59765625,-708.49609375,-72.75390625,0.0
1732201843.159848,-147.94921875,-155.2734375,-738.28125,-97.16796875,0.0
1732201843.1637533,-236.328125,-161.62109375,-752.44140625,-87.40234375,0.0
1732201843.1676588,-144.53125,-161.1328125,-745.1171875,-62.5,0.0
1732201843.1715643,-142.578125,-162.109375,-747.0703125,-46.38671875,0.0
1732201843.1754699,-158.203125,-170.41015625,-775.87890625,-60.05859375,0.0
1732201843.1793754,-145.01953125,-157.71484375,-777.83203125,-86.42578125,0.0
1732201843.183281,-142.578125,-153.3203125,-811.5234375,-101.5625,0.0
1732201843.1871865,-147.94921875,-183.10546875,-844.23828125,-85.9375,0.0
1732201843.191092,-151.85546875,-153.80859375,-770.5078125,-58.10546875,0.0
1732201843.1949975,-156.25,-117.1875,-720.703125,-67.87109375,0.0
1732201843.198903,-154.78515625,-146.97265625,-827.1484375,-103.515625,0.0
1732201843.202815,-151.3671875,-156.73828125,-905.76171875,-114.2578125,0.0
1732201843.2067206,-147.94921875,-132.8125,-791.50390625,-90.33203125,0.0
1732201843.2106261,-134.27734375,-127.44140625,-725.09765625,-80.56640625,0.0
1732201843.2145317,-125.48828125,-143.06640625,-764.6484375,-97.16796875,0.0
1732201843.2184372,-127.44140625,-149.4140625,-852.05078125,-103.515625,0.0
1732201843.2223427,-109.86328125,-151.85546875,-879.39453125,-109.86328125,0.0
1732201843.2262483,-138.671875,-130.37109375,-789.55078125,-105.46875,0.0
1732201843.2301538,-154.78515625,-138.18359375,-819.3359375,-70.80078125,0.0
1732201843.2340593,-132.8125,-150.390625,-870.1171875,-83.0078125,0.0
1732201843.2379649,-155.76171875,-105.46875,-759.27734375,-129.39453125,0.0
1732201843.2418704,-161.1328125,-132.8125,-828.61328125,-122.0703125,0.0
1732201843.2457757,-130.859375,-142.578125,-875.48828125,-123.046875,0.0
1732201843.2496877,-124.51171875,-109.86328125,-787.59765625,-121.58203125,0.0
1732201843.2535932,-126.953125,-95.703125,-678.22265625,-125.48828125,0.0
1732201843.2574987,-152.34375,-116.69921875,-744.62890625,-142.08984375,0.0
1732201843.2614043,-145.5078125,-125.0,-808.10546875,-124.0234375,0.0
1732201843.2653098,-113.28125,-118.65234375,-776.3671875,-102.05078125,0.0
1732201843.2692153,-100.09765625,-113.76953125,-740.72265625,-93.75,0.0
1732201843.2731209,-96.6796875,-105.95703125,-711.9140625,-119.140625,0.0
1732201843.2770262,-113.76953125,-139.16015625,-770.01953125,-139.16015625,0.0
1732201843.2809317,-114.2578125,-120.1171875,-753.41796875,-140.625,0.0
1732201843.2848372,-122.0703125,-86.9140625,-675.29296875,-154.296875,0.0
1732201843.2887428,-128.90625,-117.67578125,-683.59375,-148.92578125,0.0
1732201843.2926483,-119.62890625,-126.46484375,-691.89453125,-132.8125,0.0
1732201843.2965598,-131.34765625,-110.83984375,-632.32421875,-123.046875,0.0
1732201843.3004653,-113.76953125,-122.0703125,-676.7578125,-138.671875,0.0
1732201843.3043709,-100.09765625,-147.4609375,-801.7578125,-158.69140625,0.0
1732201843.3082764,-114.74609375,-129.39453125,-739.74609375,-169.921875,0.0
1732201843.312182,-137.6953125,-104.98046875,-577.1484375,-179.6875,0.0
1732201843.3160875,-154.78515625,-125.9765625,-645.5078125,-185.05859375,0.0
1732201843.319993,-165.0390625,-158.203125,-803.7109375,-178.22265625,0.0
1732201843.3238983,-162.109375,-150.87890625,-834.9609375,-183.59375,0.0
1732201843.3278039,-163.0859375,-79.58984375,-543.9453125,-189.94140625,0.0
1732201843.3317094,-155.76171875,-85.44921875,-445.3125,-174.31640625,0.0
1732201843.335615,-149.4140625,-129.8828125,-554.6875,-172.36328125,0.0
1732201843.3395205,-134.27734375,-133.7890625,-569.82421875,-179.6875,0.0
1732201843.3434317,-121.09375,-126.953125,-475.5859375,-166.9921875,0.0
1732201843.3473372,-120.60546875,-131.34765625,-431.15234375,-157.2265625,0.0
1732201843.3512428,-131.8359375,-139.16015625,-418.9453125,-153.3203125,0.0
1732201843.3551483,-136.23046875,-129.39453125,-335.9375,-146.97265625,0.0
1732201843.3590539,-123.53515625,-126.46484375,-394.53125,-165.0390625,0.0
1732201843.3629591,-112.3046875,-145.01953125,-515.625,-168.9453125,0.0
1732201843.3668647,-121.58203125,-170.41015625,-606.93359375,-156.25,0.0
1732201843.3707702,-123.53515625,-131.34765625,-437.01171875,-146.97265625,0.0
1732201843.3746758,-121.58203125,-92.7734375,-197.75390625,-141.6015625,0.0
1732201843.3785813,-128.41796875,-134.27734375,-348.14453125,-149.4140625,0.0
1732201843.3824868,-114.2578125,-147.4609375,-421.875,-153.80859375,0.0
1732201843.3863924,-133.30078125,-118.1640625,-282.71484375,-137.20703125,0.0
1732201843.3903031,-178.22265625,-113.28125,-87.890625,-133.7890625,0.0
1732201843.3942087,-196.2890625,-145.01953125,-176.7578125,-145.99609375,0.0
1732201843.3981142,-179.19921875,-157.71484375,-322.265625,-155.2734375,0.0
1732201843.4020197,-165.52734375,-137.6953125,-223.6328125,-174.31640625,0.0
1732201843.4059253,-169.921875,-131.34765625,-101.07421875,-156.25,0.0
1732201843.4098306,-206.0546875,-154.296875,-193.359375,-146.97265625,0.0
1732201843.413736,-208.0078125,-134.27734375,-201.66015625,-166.9921875,0.0
1732201843.4176416,-235.83984375,-93.75,59.5703125,-170.41015625,0.0
1732201843.4215472,-266.11328125,-120.1171875,-35.15625,-164.0625,0.0
1732201843.4254527,-258.30078125,-126.46484375,-62.01171875,-159.66796875,0.0
1732201843.4293582,-289.55078125,-106.4453125,95.21484375,-152.83203125,0.0
1732201843.4332638,-300.78125,-90.33203125,259.765625,-152.83203125,0.0
1732201843.4371772,-300.29296875,-100.09765625,246.58203125,-141.11328125,0.0
1732201843.4410825,-314.453125,-116.69921875,169.43359375,-138.18359375,0.0
1732201843.444988,-308.59375,-103.515625,202.63671875,-152.83203125,0.0
1732201843.4488935,-286.1328125,-80.078125,332.51953125,-146.484375,0.0
1732201843.452799,-345.703125,-86.42578125,344.7265625,-138.671875,0.0
1732201843.4567046,-420.8984375,-116.2109375,249.0234375,-146.97265625,0.0
1732201843.4606102,-375.9765625,-107.421875,255.859375,-161.62109375,0.0
1732201843.4645157,-349.12109375,-74.21875,357.91015625,-159.1796875,0.0
1732201843.4684212,-389.6484375,-56.15234375,432.12890625,-145.01953125,0.0
1732201843.4723268,-369.140625,-52.24609375,498.046875,-141.6015625,0.0
1732201843.4762323,-321.77734375,-33.203125,582.51953125,-168.45703125,0.0
1732201843.4801378,-314.453125,-18.5546875,616.69921875,-213.8671875,0.0
1732201843.4840508,-283.69140625,-28.3203125,640.13671875,-129.8828125,0.0
1732201843.4879563,-266.6015625,-17.578125,747.0703125,-48.828125,0.0
1732201843.4918616,-286.62109375,9.27734375,816.40625,-82.03125,0.0
1732201843.495767,-255.859375,7.32421875,781.25,-120.1171875,0.0
1732201843.4996727,-225.09765625,-19.04296875,652.34375,-154.78515625,0.0
1732201843.5035782,-208.0078125,-39.0625,550.78125,-147.4609375,0.0
1732201843.5074837,-190.91796875,-10.25390625,558.10546875,-122.55859375,0.0
1732201843.5113893,-218.26171875,26.3671875,610.3515625,-136.23046875,0.0
1732201843.5152948,-239.2578125,-14.6484375,358.88671875,-146.484375,0.0
1732201843.5192003,-253.41796875,-35.64453125,219.23828125,-147.94921875,0.0
1732201843.5231059,-261.23046875,2.9296875,271.97265625,-181.15234375,0.0
1732201843.5270114,-271.97265625,1.46484375,232.91015625,-145.99609375,0.0
1732201843.5309238,-281.73828125,-5.37109375,285.64453125,-114.74609375,0.0
1732201843.5348294,-255.37109375,-9.765625,187.98828125,-146.484375,0.0
1732201843.538735,-256.34765625,6.8359375,91.796875,-188.96484375,0.0
1732201843.5426404,-251.46484375,-7.32421875,-19.53125,-204.1015625,0.0
1732201843.546546,-196.77734375,-5.37109375,-160.15625,-228.02734375,0.0
1732201843.5504515,-223.6328125,6.8359375,-166.015625,-248.046875,0.0
1732201843.554357,-262.6953125,13.18359375,-188.4765625,-148.92578125,0.0
1732201843.5582626,-177.734375,13.671875,-427.24609375,-123.046875,0.0
1732201843.5621681,-125.9765625,-15.625,-693.359375,-110.3515625,0.0
1732201843.5660737,-103.02734375,35.15625,-662.59765625,-75.1953125,0.0
1732201843.5699792,-59.08203125,88.8671875,-522.94921875,-50.78125,0.0
1732201843.5738847,-77.63671875,52.24609375,-642.578125,-131.34765625,0.0
1732201843.5777967,-107.91015625,46.875,-765.13671875,-159.66796875,0.0
1732201843.5817022,-55.6640625,76.66015625,-726.5625,-32.71484375,0.0
1732201843.5856078,-11.71875,54.6875,-737.79296875,-12.20703125,0.0
1732201843.5895133,-25.390625,33.203125,-777.34375,-53.22265625,0.0
1732201843.5934188,-27.83203125,47.8515625,-826.66015625,-51.7578125,0.0
1732201843.5973244,-32.71484375,34.66796875,-830.078125,-14.16015625,0.0
1732201843.60123,-28.3203125,29.78515625,-819.82421875,-21.484375,0.0
1732201843.6051354,-9.765625,24.4140625,-894.53125,20.01953125,0.0
1732201843.609041,18.5546875,28.80859375,-890.625,77.63671875,0.0
1732201843.6129465,48.33984375,74.70703125,-728.02734375,75.68359375,0.0
1732201843.616852,23.92578125,27.34375,-815.91796875,47.8515625,0.0
1732201843.6207576,7.8125,9.27734375,-883.30078125,10.7421875,0.0
1732201843.6246696,13.671875,26.3671875,-837.40234375,9.27734375,0.0
1732201843.628575,39.55078125,29.78515625,-755.37109375,29.296875,0.0
1732201843.6324806,69.3359375,20.5078125,-742.1875,53.22265625,0.0
1732201843.6363862,-10.25390625,7.32421875,-796.875,50.78125,0.0
1732201843.6402915,-40.52734375,-6.8359375,-820.80078125,61.5234375,0.0
1732201843.644197,99.609375,-25.87890625,-850.5859375,84.47265625,0.0
1732201843.6481025,121.09375,-0.9765625,-787.109375,48.828125,0.0
1732201843.652008,120.60546875,-10.7421875,-794.921875,111.81640625,0.0
1732201843.6559136,90.33203125,-10.25390625,-760.25390625,104.4921875,0.0
1732201843.6598191,39.0625,-4.8828125,-718.26171875,72.75390625,0.0
1732201843.6637247,87.40234375,-27.83203125,-802.24609375,86.9140625,0.0
1732201843.6676302,63.4765625,-17.08984375,-771.97265625,64.453125,0.0
1732201843.6715417,47.8515625,13.671875,-608.3984375,145.99609375,0.0
1732201843.6754472,98.14453125,25.87890625,-596.6796875,106.93359375,0.0
1732201843.6793528,143.06640625,2.44140625,-751.953125,68.84765625,0.0
1732201843.6832583,85.44921875,-5.37109375,-766.6015625,87.890625,0.0
1732201843.6871638,7.8125,7.32421875,-567.3828125,18.5546875,0.0
1732201843.6910694,137.20703125,1.953125,-516.6015625,45.8984375,0.0
1732201843.694975,169.43359375,-31.73828125,-654.296875,75.68359375,0.0
1732201843.6988804,130.37109375,-29.296875,-705.078125,103.515625,0.0
1732201843.702786,76.66015625,-20.01953125,-531.25,-5.37109375,0.0
1732201843.7066915,33.203125,-42.48046875,-526.3671875,-144.53125,0.0
1732201843.710597,112.79296875,-36.62109375,-461.42578125,-41.9921875,0.0
1732201843.7145023,66.40625,-43.9453125,-346.19140625,5.37109375,0.0
1732201843.7184138,-23.4375,-66.40625,-323.2421875,-83.984375,0.0
1732201843.7223194,-8.7890625,-98.14453125,-413.0859375,-125.9765625,0.0
1732201843.726225,-5.859375,-93.26171875,-411.1328125,-154.296875,0.0
1732201843.7301304,66.89453125,-57.12890625,-211.42578125,-131.34765625,0.0
1732201843.734036,132.8125,-52.734375,-165.0390625,-8.7890625,0.0
1732201843.7379415,137.20703125,-105.95703125,-326.171875,-68.359375,0.0
1732201843.7418468,149.4140625,-110.83984375,-537.109375,-104.4921875,0.0
1732201843.7457523,-3.90625,-69.82421875,-421.875,-44.43359375,0.0
1732201843.7496579,-178.22265625,-100.5859375,-55.6640625,-289.55078125,0.0
1732201843.7535634,-4.8828125,-106.93359375,-51.7578125,-297.36328125,0.0
1732201843.757469,176.26953125,-74.21875,-84.47265625,-21.484375,0.0
1732201843.7613745,128.90625,-108.3984375,-31.25,-84.47265625,0.0
1732201843.7652853,17.578125,-103.515625,43.9453125,-306.640625,0.0
1732201843.7691908,-3.41796875,-86.9140625,121.09375,-276.3671875,0.0
1732201843.7730963,-44.921875,-112.79296875,149.4140625,-118.65234375,0.0
1732201843.7770019,-17.08984375,-116.2109375,176.7578125,28.80859375,0.0
1732201843.7809074,162.59765625,-114.74609375,158.69140625,140.625,0.0
1732201843.784813,250.48828125,-164.0625,-78.125,133.30078125,0.0
1732201843.7887185,183.10546875,-159.1796875,-64.94140625,146.97265625,0.0
1732201843.7926238,151.3671875,-96.6796875,311.5234375,91.30859375,0.0
1732201843.7965293,133.30078125,-114.2578125,259.27734375,65.91796875,0.0
1732201843.8004348,-29.296875,-174.31640625,73.2421875,-78.61328125,0.0
1732201843.8043404,32.2265625,-191.40625,20.99609375,-119.62890625,0.0
1732201843.808246,164.55078125,-161.1328125,182.6171875,-65.91796875,0.0
1732201843.8121593,206.54296875,-125.0,247.55859375,75.1953125,0.0
1732201843.8160646,301.7578125,-126.953125,166.9921875,220.21484375,0.0
1732201843.8199701,275.87890625,-153.80859375,79.1015625,151.85546875,0.0
1732201843.8238757,239.74609375,-149.90234375,75.1953125,99.12109375,0.0
1732201843.8277812,198.2421875,-161.62109375,116.69921875,67.3828125,0.0
1732201843.8316867,162.59765625,-191.40625,59.5703125,22.94921875,0.0
1732201843.8355923,173.33984375,-166.015625,55.6640625,-11.23046875,0.0
1732201843.8394978,179.19921875,-143.5546875,84.47265625,13.671875,0.0
1732201843.8434033,180.6640625,-184.08203125,-84.9609375,30.2734375,0.0
1732201843.8473089,140.13671875,-195.3125,-224.609375,42.96875,0.0
1732201843.8512144,183.59375,-145.5078125,-13.18359375,94.23828125,0.0
1732201843.85512,187.01171875,-134.765625,68.84765625,97.16796875,0.0
1732201843.8590329,139.16015625,-179.6875,-194.3359375,41.50390625,0.0
1732201843.8629384,138.18359375,-189.453125,-348.6328125,37.109375,0.0
1732201843.8668437,164.0625,-148.4375,-214.35546875,72.75390625,0.0
1732201843.8707492,217.7734375,-141.11328125,-78.61328125,60.546875,0.0
1732201843.8746548,186.03515625,-166.50390625,-242.1875,54.19921875,0.0
1732201843.8785603,203.125,-161.62109375,-465.33203125,30.76171875,0.0
1732201843.8824658,171.875,-143.5546875,-418.45703125,41.015625,0.0
1732201843.8863714,114.74609375,-115.72265625,-276.85546875,50.78125,0.0
1732201843.890277,189.94140625,-134.765625,-382.32421875,36.62109375,0.0
1732201843.8941824,221.6796875,-141.11328125,-483.88671875,54.19921875,0.0
1732201843.898088,158.69140625,-103.02734375,-324.70703125,12.6953125,0.0
1732201843.9019935,132.8125,-108.88671875,-408.69140625,-6.34765625,0.0
1732201843.905906,179.19921875,-104.00390625,-401.3671875,13.671875,0.0
1732201843.9098115,169.921875,-94.23828125,-274.4140625,41.9921875,0.0
1732201843.913717,122.55859375,-96.6796875,-241.2109375,35.64453125,0.0
1732201843.9176226,122.0703125,-111.81640625,-355.46875,15.13671875,0.0
1732201843.921528,134.27734375,-125.48828125,-498.53515625,3.90625,0.0
1732201843.9254336,140.625,-131.34765625,-521.484375,10.7421875,0.0
1732201843.9293392,162.109375,-107.91015625,-375.9765625,20.5078125,0.0
1732201843.9332447,151.3671875,-99.12109375,-350.5859375,17.578125,0.0
1732201843.9371502,150.390625,-129.39453125,-535.64453125,14.6484375,0.0
1732201843.9410558,161.62109375,-108.88671875,-512.20703125,4.8828125,0.0
1732201843.944961,120.60546875,-88.37890625,-388.18359375,6.34765625,0.0
1732201843.9488666,86.42578125,-108.88671875,-434.08203125,13.18359375,0.0
1732201843.952779,80.078125,-114.2578125,-436.03515625,26.85546875,0.0
1732201843.9566846,92.7734375,-107.421875,-377.9296875,18.06640625,0.0
1732201843.9605901,110.83984375,-115.72265625,-440.91796875,-6.8359375,0.0
1732201843.9644954,111.328125,-133.7890625,-591.30859375,-4.8828125,0.0
1732201843.968401,77.1484375,-130.859375,-602.05078125,8.30078125,0.0
1732201843.9723065,57.6171875,-123.53515625,-514.6484375,16.11328125,0.0
1732201843.976212,70.3125,-111.328125,-483.3984375,3.90625,0.0
1732201843.9801176,42.48046875,-147.4609375,-668.45703125,-15.13671875,0.0
1732201843.984023,36.62109375,-162.59765625,-805.6640625,-9.765625,0.0
1732201843.9879286,39.55078125,-103.515625,-568.359375,2.44140625,0.0
1732201843.9918342,23.4375,-118.65234375,-592.28515625,-3.41796875,0.0
1732201843.9957397,6.8359375,-133.30078125,-656.25,-7.8125,0.0
1732201843.9996514,14.6484375,-121.09375,-650.87890625,-19.53125,0.0
1732201844.003557,-7.32421875,-125.9765625,-693.359375,-50.78125,0.0
1732201844.0074625,-49.31640625,-139.6484375,-716.30859375,-47.8515625,0.0
1732201844.011368,-46.875,-132.8125,-679.6875,-34.66796875,0.0
1732201844.0152736,-39.0625,-127.9296875,-686.03515625,-50.29296875,0.0
1732201844.019179,-60.546875,-149.90234375,-791.015625,-40.52734375,0.0
1732201844.0230846,-117.1875,-152.34375,-835.9375,-46.875,0.0
1732201844.0269902,-124.51171875,-160.15625,-852.05078125,-34.66796875,0.0
1732201844.0308957,-103.02734375,-123.53515625,-740.234375,-9.765625,0.0
1732201844.0348012,-101.07421875,-96.6796875,-684.08203125,-38.0859375,0.0
1732201844.0387068,-117.1875,-138.18359375,-817.3828125,-67.87109375,0.0
1732201844.0426123,-107.91015625,-139.6484375,-890.625,-72.265625,0.0
1732201844.0465238,-91.30859375,-118.1640625,-828.125,-42.96875,0.0
1732201844.050429,-95.703125,-104.00390625,-743.1640625,-31.73828125,0.0
1732201844.0543346,-107.91015625,-120.1171875,-808.59375,-48.828125,0.0
1732201844.0582402,-114.74609375,-132.8125,-884.27734375,-73.2421875,0.0
1732201844.0621457,-135.25390625,-125.0,-863.76953125,-80.56640625,0.0
1732201844.0660512,-164.55078125,-118.65234375,-883.7890625,-59.08203125,0.0
1732201844.0699568,-186.5234375,-126.46484375,-900.390625,-54.6875,0.0
1732201844.0738623,-201.171875,-125.48828125,-897.4609375,-56.15234375,0.0
1732201844.0777678,-211.42578125,-81.0546875,-795.41015625,-66.89453125,0.0
1732201844.0816734,-215.33203125,-104.4921875,-858.3984375,-61.5234375,0.0
1732201844.085579,-214.35546875,-139.16015625,-916.015625,-44.43359375,0.0
1732201844.0894845,-204.1015625,-113.28125,-817.87109375,-50.29296875,0.0
1732201844.0933957,-223.6328125,-99.609375,-783.203125,-75.1953125,0.0
1732201844.0973012,-242.67578125,-124.51171875,-854.4921875,-92.7734375,0.0
1732201844.1012068,-225.09765625,-142.08984375,-934.08203125,-97.65625,0.0
1732201844.1051123,-237.3046875,-128.41796875,-916.9921875,-86.9140625,0.0
1732201844.1090178,-252.44140625,-102.5390625,-835.9375,-94.23828125,0.0
1732201844.1129234,-244.140625,-104.4921875,-852.5390625,-104.00390625,0.0
1732201844.1168287,-262.20703125,-135.25390625,-895.5078125,-74.70703125,0.0
1732201844.1207342,-289.55078125,-117.1875,-867.67578125,-87.40234375,0.0
1732201844.1246397,-318.359375,-91.30859375,-802.24609375,-127.9296875,0.0
1732201844.1285453,-287.109375,-114.2578125,-785.64453125,-107.91015625,0.0
1732201844.1324508,-255.37109375,-121.58203125,-784.66796875,-84.9609375,0.0
1732201844.1363564,-265.13671875,-117.1875,-782.2265625,-99.609375,0.0
1732201844.1402674,-255.859375,-112.79296875,-755.859375,-87.40234375,0.0
1732201844.144173,-275.87890625,-128.90625,-826.66015625,-75.1953125,0.0
1732201844.1480784,-259.765625,-118.65234375,-761.71875,-78.61328125,0.0
1732201844.151984,-251.46484375,-95.703125,-537.109375,-81.0546875,0.0
1732201844.1558895,-280.76171875,-103.515625,-559.5703125,-87.890625,0.0
1732201844.1597948,-264.16015625,-135.7421875,-768.5546875,-80.078125,0.0
1732201844.1637003,-234.375,-140.13671875,-805.17578125,-73.2421875,0.0
1732201844.1676059,-285.64453125,-80.078125,-522.4609375,-65.91796875,0.0
1732201844.1715114,-281.73828125,-54.19921875,-316.40625,-40.0390625,0.0
1732201844.175417,-250.9765625,-105.95703125,-461.42578125,-46.875,0.0
1732201844.1793225,-281.25,-120.60546875,-630.859375,-91.30859375,0.0
1732201844.183228,-268.06640625,-80.078125,-438.4765625,-95.21484375,0.0
1732201844.1871414,-276.85546875,-77.63671875,-305.17578125,-61.5234375,0.0
1732201844.1910467,-298.828125,-88.37890625,-248.53515625,-46.38671875,0.0
1732201844.1949522,-296.875,-83.0078125,-134.765625,-76.171875,0.0
1732201844.1988578,-316.40625,-83.49609375,-121.09375,-94.23828125,0.0
1732201844.2027633,-335.9375,-100.09765625,-238.76953125,-90.33203125,0.0
1732201844.2066689,-313.96484375,-118.1640625,-293.45703125,-60.05859375,0.0
1732201844.2105744,-290.52734375,-86.42578125,-58.59375,-53.22265625,0.0
1732201844.21448,-328.125,-62.5,108.88671875,-84.9609375,0.0
1732201844.2183855,-359.375,-102.5390625,-66.40625,-99.609375,0.0
1732201844.222291,-312.01171875,-118.65234375,-245.1171875,-78.61328125,0.0
1732201844.2261965,-293.9453125,-75.68359375,-19.53125,-56.15234375,0.0
1732201844.230102,-334.9609375,-62.01171875,186.03515625,-63.4765625,0.0
1732201844.234015,-344.23828125,-89.84375,115.234375,-75.68359375,0.0
1732201844.2379205,-322.75390625,-91.796875,77.1484375,-73.2421875,0.0
1732201844.241826,-285.15625,-68.84765625,134.27734375,-67.87109375,0.0
1732201844.2457316,-277.83203125,-60.546875,174.31640625,-59.5703125,0.0
1732201844.249637,-286.1328125,-71.2890625,147.4609375,-48.33984375,0.0
1732201844.2535424,-286.1328125,-73.2421875,115.234375,-48.828125,0.0
1732201844.257448,-303.22265625,-47.8515625,187.98828125,-64.94140625,0.0
1732201844.2613535,-291.9921875,-33.69140625,240.72265625,-56.640625,0.0
1732201844.265259,-293.9453125,-73.2421875,14.6484375,-38.57421875,0.0
1732201844.2691646,-281.25,-68.84765625,40.0390625,-34.1796875,0.0
1732201844.27307,-276.85546875,-13.18359375,336.42578125,-31.73828125,0.0
1732201844.2769756,-286.62109375,-37.59765625,248.046875,-37.59765625,0.0
1732201844.280888,-290.0390625,-45.8984375,244.62890625,-33.69140625,0.0
1732201844.2847936,-333.49609375,-32.71484375,310.546875,-42.96875,0.0
1732201844.2886992,-326.171875,-26.3671875,376.46484375,-48.33984375,0.0
1732201844.2926047,-275.390625,-27.34375,418.9453125,-55.6640625,0.0
1732201844.2965102,-286.1328125,-48.33984375,346.19140625,-73.2421875,0.0
1732201844.3004158,-283.69140625,-51.26953125,227.05078125,-43.9453125,0.0
1732201844.3043213,-249.0234375,-18.5546875,253.90625,-31.73828125,0.0
1732201844.3082268,-248.046875,7.8125,285.15625,-30.2734375,0.0
1732201844.3121324,-217.7734375,-14.6484375,98.6328125,-8.7890625,0.0
1732201844.316038,-163.0859375,26.3671875,198.2421875,-18.5546875,0.0
1732201844.3199434,-138.18359375,61.5234375,351.5625,2.44140625,0.0
1732201844.323849,-139.16015625,16.11328125,211.9140625,-17.08984375,0.0
1732201844.3277612,-170.41015625,12.6953125,225.09765625,-32.2265625,0.0
1732201844.3316665,-171.875,21.97265625,220.21484375,6.34765625,0.0
1732201844.335572,-150.390625,11.71875,139.16015625,-26.85546875,0.0
1732201844.3394775,-121.58203125,-9.765625,-69.82421875,-13.671875,0.0
1732201844.343383,-92.28515625,-22.4609375,-319.82421875,27.34375,0.0
1732201844.3472886,-89.35546875,-5.859375,-308.59375,-1.953125,0.0
1732201844.3511941,-42.96875,5.859375,-226.5625,23.92578125,0.0
1732201844.3550997,-19.53125,-22.4609375,-447.265625,58.59375,0.0
1732201844.3590052,-33.203125,-21.484375,-631.8359375,20.5078125,0.0
1732201844.3629107,-30.2734375,35.15625,-432.12890625,24.90234375,0.0
1732201844.3668163,-29.78515625,16.11328125,-489.74609375,50.29296875,0.0
1732201844.3707218,-41.015625,14.6484375,-464.35546875,16.11328125,0.0
1732201844.3746336,-52.24609375,29.78515625,-371.09375,7.32421875,0.0
1732201844.378539,-45.8984375,9.27734375,-437.5,4.39453125,0.0
1732201844.3824446,-38.0859375,-9.765625,-522.94921875,-4.39453125,0.0
1732201844.3863502,-32.2265625,-20.01953125,-579.58984375,57.12890625,0.0
1732201844.3902557,-28.80859375,-7.8125,-498.046875,55.17578125,0.0
1732201844.3941612,-44.43359375,-9.27734375,-460.44921875,26.85546875,0.0
1732201844.3980668,-41.015625,-11.23046875,-523.4375,41.9921875,0.0
1732201844.4019723,-29.78515625,-49.8046875,-676.7578125,41.9921875,0.0
1732201844.4058778,-9.765625,-20.5078125,-581.54296875,62.98828125,0.0
1732201844.4097834,-5.859375,35.64453125,-323.73046875,83.984375,0.0
1732201844.413689,22.94921875,-7.32421875,-393.5546875,79.1015625,0.0
1732201844.4175942,42.48046875,-16.11328125,-499.51171875,68.84765625,0.0
1732201844.421506,14.6484375,5.37109375,-466.30859375,41.9921875,0.0
1732201844.4254115,53.7109375,4.39453125,-434.08203125,37.109375,0.0
1732201844.429317,43.45703125,-3.41796875,-469.23828125,44.43359375,0.0
1732201844.4332225,21.97265625,-17.578125,-448.2421875,12.20703125,0.0
1732201844.437128,40.0390625,-17.578125,-403.3203125,28.80859375,0.0
1732201844.4410334,69.3359375,-27.83203125,-536.62109375,84.9609375,0.0
1732201844.444939,81.0546875,-50.78125,-684.08203125,114.2578125,0.0
1732201844.4488444,60.05859375,-28.80859375,-621.09375,88.8671875,0.0
1732201844.45275,14.6484375,19.53125,-290.52734375,71.2890625,0.0
1732201844.4566555,85.9375,-5.37109375,-308.10546875,7.8125,0.0
1732201844.460561,183.59375,-46.875,-501.953125,13.18359375,0.0
1732201844.4644666,198.2421875,-28.80859375,-479.98046875,70.3125,0.0
1732201844.4683778,142.08984375,6.8359375,-269.53125,15.13671875,0.0
1732201844.4722834,-16.11328125,-19.04296875,-243.65234375,34.1796875,0.0
1732201844.476189,68.359375,-57.6171875,-363.76953125,57.6171875,0.0
1732201844.4800944,267.578125,-35.15625,-382.8125,58.10546875,0.0
1732201844.484,126.46484375,-29.296875,-392.08984375,-19.53125,0.0
1732201844.4879053,57.12890625,-51.26953125,-358.88671875,-87.40234375,0.0
1732201844.4918108,134.765625,-74.21875,-431.640625,-32.2265625,0.0
1732201844.4957163,58.10546875,-24.4140625,-383.7890625,48.828125,0.0
1732201844.4996219,17.578125,-43.45703125,-241.69921875,-102.5390625,0.0
1732201844.5035274,-6.34765625,-120.1171875,-392.578125,-202.1484375,0.0
1732201844.507433,-52.24609375,-36.1328125,-262.20703125,-40.0390625,0.0
1732201844.5113385,107.421875,0.9765625,7.32421875,34.66796875,0.0
1732201844.5152493,145.99609375,-75.1953125,51.7578125,-120.1171875,0.0
1732201844.5191548,43.9453125,-124.51171875,-165.0390625,-154.296875,0.0
1732201844.5230603,-4.8828125,-77.1484375,-284.1796875,-3.90625,0.0
1732201844.5269659,4.8828125,-35.15625,-47.8515625,-103.02734375,0.0
1732201844.5308714,76.66015625,-70.80078125,93.26171875,-276.85546875,0.0
1732201844.534777,74.21875,-104.98046875,-187.5,-136.71875,0.0
1732201844.5386825,207.03125,-67.3828125,-287.109375,8.30078125,0.0
1732201844.542588,127.9296875,-52.24609375,18.5546875,-93.26171875,0.0
1732201844.5464935,131.8359375,-57.12890625,68.359375,-10.7421875,0.0
1732201844.550399,-15.13671875,-122.55859375,46.875,-221.6796875,0.0
1732201844.5543044,-279.78515625,-190.91796875,58.59375,-488.76953125,0.0
1732201844.55821,67.87109375,-93.26171875,88.8671875,-125.48828125,0.0
1732201844.5621233,216.796875,-54.6875,62.5,76.66015625,0.0
1732201844.5660288,62.01171875,-85.9375,168.9453125,-16.6015625,0.0
1732201844.5699344,135.7421875,-84.47265625,299.31640625,83.49609375,0.0
1732201844.5738397,160.64453125,-95.21484375,319.82421875,32.2265625,0.0
1732201844.5777452,61.03515625,-132.8125,261.23046875,-94.7265625,0.0
1732201844.5816507,41.015625,-163.0859375,144.53125,-104.98046875,0.0
1732201844.5855563,133.7890625,-128.41796875,199.70703125,-37.59765625,0.0
1732201844.5894618,96.19140625,-82.03125,365.234375,-22.4609375,0.0
1732201844.5933673,92.7734375,-97.16796875,320.80078125,108.88671875,0.0
1732201844.5972729,169.43359375,-114.74609375,215.8203125,198.2421875,0.0
1732201844.6011784,11.23046875,-105.95703125,250.48828125,114.2578125,0.0
1732201844.605084,-58.10546875,-127.44140625,283.69140625,-13.671875,0.0
1732201844.6089969,45.8984375,-149.4140625,274.4140625,-122.55859375,0.0
1732201844.6129024,38.57421875,-126.953125,291.015625,-118.65234375,0.0
1732201844.616808,65.91796875,-126.953125,210.9375,-25.390625,0.0
1732201844.6207135,91.30859375,-116.69921875,162.109375,63.4765625,0.0
1732201844.624619,60.546875,-132.32421875,91.796875,40.0390625,0.0
1732201844.6285245,89.84375,-149.4140625,29.78515625,46.38671875,0.0
1732201844.63243,127.44140625,-119.140625,169.43359375,124.0234375,0.0
1732201844.6363356,72.265625,-121.09375,231.93359375,62.5,0.0
1732201844.640241,-17.08984375,-197.265625,-114.74609375,-95.703125,0.0
1732201844.6441464,79.58984375,-182.6171875,-254.8828125,-71.2890625,0.0
1732201844.648052,195.3125,-99.12109375,37.109375,78.61328125,0.0
1732201844.6519575,214.84375,-115.234375,48.33984375,109.375,0.0
1732201844.6558702,124.0234375,-122.55859375,-24.4140625,21.97265625,0.0
1732201844.6597757,104.98046875,-121.09375,-104.98046875,-7.32421875,0.0
1732201844.6636813,202.63671875,-128.41796875,-147.4609375,61.03515625,0.0
1732201844.6675866,166.50390625,-139.6484375,-176.26953125,34.1796875,0.0
1732201844.671492,174.31640625,-142.578125,-215.33203125,19.53125,0.0
1732201844.6753976,148.4375,-146.484375,-306.640625,0.48828125,0.0
1732201844.6793032,104.4921875,-153.80859375,-381.34765625,-26.85546875,0.0
1732201844.6832087,214.84375,-134.765625,-412.59765625,31.73828125,0.0
1732201844.6871142,184.5703125,-162.109375,-582.03125,27.34375,0.0
1732201844.6910198,146.97265625,-137.6953125,-473.6328125,31.25,0.0
1732201844.6949253,149.4140625,-82.51953125,-200.68359375,18.06640625,0.0
1732201844.6988308,72.265625,-121.58203125,-403.3203125,-23.4375,0.0
1732201844.702743,102.05078125,-145.99609375,-520.99609375,-28.80859375,0.0
1732201844.7066486,157.2265625,-111.328125,-376.953125,-6.8359375,0.0
1732201844.710554,127.44140625,-96.19140625,-266.6015625,0.9765625,0.0
1732201844.7144594,108.88671875,-129.8828125,-385.7421875,-16.11328125,0.0
1732201844.718365,124.51171875,-147.94921875,-535.64453125,-8.30078125,0.0
1732201844.7222705,93.26171875,-135.25390625,-557.6171875,0.9765625,0.0
1732201844.726176,0.0,-112.79296875,-452.63671875,-11.71875,0.0
1732201844.7300816,13.671875,-136.23046875,-529.296875,2.9296875,0.0
1732201844.733987,81.54296875,-150.390625,-660.15625,-5.37109375,0.0
1732201844.7378926,5.859375,-88.37890625,-441.40625,-48.33984375,0.0
1732201844.7417982,-35.15625,-103.02734375,-554.6875,-20.99609375,0.0
1732201844.7457037,-67.3828125,-125.9765625,-624.51171875,-2.9296875,0.0
1732201844.7496157,18.5546875,-83.984375,-442.3828125,-13.18359375,0.0
1732201844.7535212,97.65625,-70.80078125,-371.09375,-19.53125,0.0
1732201844.7574267,22.4609375,-105.46875,-487.3046875,-47.36328125,0.0
1732201844.761332,84.47265625,-112.79296875,-605.46875,-51.26953125,0.0
1732201844.7652376,63.96484375,-97.65625,-568.359375,-10.25390625,0.0
1732201844.769143,5.859375,-89.35546875,-565.91796875,-4.39453125,0.0
1732201844.7730486,24.4140625,-90.8203125,-501.46484375,-12.20703125,0.0
1732201844.7769542,-7.8125,-132.32421875,-685.05859375,-20.01953125,0.0
1732201844.7808597,-19.53125,-111.328125,-769.53125,-34.1796875,0.0
1732201844.7847652,32.71484375,-64.94140625,-543.9453125,-35.15625,0.0
1732201844.7886708,-37.59765625,-90.8203125,-563.4765625,-24.90234375,0.0
1732201844.7925763,-53.7109375,-90.33203125,-521.484375,-6.8359375,0.0
1732201844.7964878,21.484375,-72.75390625,-481.93359375,-19.53125,0.0
1732201844.8003933,-35.15625,-79.1015625,-541.50390625,-50.78125,0.0
1732201844.8042989,-79.1015625,-102.05078125,-670.8984375,-39.55078125,0.0
1732201844.8082044,-53.22265625,-94.7265625,-629.39453125,-19.04296875,0.0
1732201844.81211,-18.5546875,-76.66015625,-465.8203125,-13.18359375,0.0
1732201844.8160155,-20.99609375,-95.21484375,-558.10546875,-10.25390625,0.0
1732201844.819921,-34.1796875,-131.8359375,-744.62890625,-29.78515625,0.0
1732201844.8238266,-8.7890625,-128.41796875,-802.24609375,-50.78125,0.0
1732201844.827732,-51.7578125,-73.73046875,-536.1328125,-43.9453125,0.0
1732201844.8316376,-56.640625,-73.2421875,-458.984375,-34.66796875,0.0
1732201844.8355432,-15.13671875,-103.02734375,-596.6796875,-48.33984375,0.0
1732201844.8394485,-45.8984375,-101.07421875,-661.62109375,-52.24609375,0.0
1732201844.84336,-50.29296875,-93.26171875,-656.73828125,-44.921875,0.0
1732201844.8472655,17.578125,-90.8203125,-648.4375,-36.62109375,0.0
1732201844.8511708,11.23046875,-81.0546875,-594.23828125,-35.64453125,0.0
1732201844.8550763,-20.99609375,-76.171875,-563.96484375,-59.5703125,0.0
1732201844.8589818,-11.23046875,-82.51953125,-655.2734375,-78.125,0.0
1732201844.8628874,-1.46484375,-115.234375,-773.92578125,-69.3359375,0.0
1732201844.866793,-36.1328125,-143.5546875,-840.33203125,-43.9453125,0.0
1732201844.8706985,-29.296875,-105.46875,-736.81640625,-43.9453125,0.0
1732201844.874604,-22.94921875,-70.80078125,-601.07421875,-58.59375,0.0
1732201844.8785095,-83.49609375,-107.421875,-733.3984375,-52.734375,0.0
1732201844.882415,-73.2421875,-120.60546875,-819.82421875,-44.43359375,0.0
1732201844.8863206,20.01953125,-94.23828125,-761.23046875,-55.6640625,0.0
1732201844.8902316,39.0625,-84.9609375,-667.96875,-65.91796875,0.0
1732201844.894137,9.765625,-115.234375,-747.55859375,-65.91796875,0.0
1732201844.8980424,-23.4375,-130.859375,-865.234375,-83.0078125,0.0
1732201844.901948,-35.15625,-122.0703125,-820.3125,-90.8203125,0.0
1732201844.9058535,-25.390625,-108.3984375,-797.36328125,-86.42578125,0.0
1732201844.909759,-24.4140625,-121.09375,-868.65234375,-73.2421875,0.0
1732201844.9136646,-35.64453125,-118.65234375,-871.09375,-70.80078125,0.0
1732201844.91757,-28.80859375,-80.56640625,-770.01953125,-86.9140625,0.0
1732201844.9214756,-28.80859375,-93.75,-818.359375,-92.28515625,0.0
1732201844.9253812,-50.29296875,-119.140625,-845.21484375,-75.68359375,0.0
1732201844.9292867,-50.78125,-113.28125,-847.16796875,-84.9609375,0.0
1732201844.9331923,-53.7109375,-85.9375,-793.9453125,-104.98046875,0.0
1732201844.9371054,-37.59765625,-92.7734375,-795.8984375,-104.4921875,0.0
1732201844.941011,-23.4375,-112.3046875,-877.44140625,-100.09765625,0.0
1732201844.9449165,-59.5703125,-104.4921875,-859.86328125,-102.5390625,0.0
1732201844.948822,-63.4765625,-84.9609375,-779.296875,-90.8203125,0.0
1732201844.9527276,-48.828125,-88.37890625,-788.57421875,-85.9375,0.0
1732201844.956633,-68.84765625,-106.93359375,-878.41796875,-93.26171875,0.0
1732201844.9605386,-95.703125,-103.515625,-901.85546875,-92.28515625,0.0
1732201844.9644442,-98.14453125,-80.078125,-859.86328125,-79.58984375,0.0
1732201844.9683495,-96.19140625,-75.68359375,-816.40625,-73.2421875,0.0
1732201844.972255,-92.28515625,-81.54296875,-782.71484375,-51.26953125,0.0
1732201844.9761605,-103.515625,-78.61328125,-801.26953125,-67.87109375,0.0
1732201844.980066,-121.58203125,-85.44921875,-826.66015625,-111.328125,0.0
1732201844.983979,-116.69921875,-95.703125,-867.1875,-93.75,0.0
1732201844.9878845,-110.3515625,-98.14453125,-872.0703125,-62.98828125,0.0
1732201844.99179,-97.16796875,-63.96484375,-702.1484375,-75.1953125,0.0
1732201844.9956954,-91.796875,-65.4296875,-700.1953125,-111.81640625,0.0
1732201844.999601,-105.95703125,-102.5390625,-824.21875,-124.51171875,0.0
1732201845.0035064,-114.74609375,-125.0,-884.27734375,-116.2109375,0.0
1732201845.007412,-114.2578125,-92.28515625,-782.2265625,-88.37890625,0.0
1732201845.0113175,-98.14453125,-62.5,-645.5078125,-88.37890625,0.0
1732201845.015223,-116.2109375,-111.81640625,-767.578125,-111.81640625,0.0
1732201845.0191286,-134.27734375,-133.7890625,-879.39453125,-121.09375,0.0
1732201845.023034,-116.2109375,-102.5390625,-788.0859375,-122.0703125,0.0
1732201845.0269396,-108.88671875,-101.5625,-769.04296875,-112.79296875,0.0
1732201845.0308523,-130.859375,-87.890625,-704.58984375,-121.09375,0.0
1732201845.0347579,-164.55078125,-82.03125,-656.73828125,-111.328125,0.0
1732201845.0386634,-175.78125,-90.33203125,-681.15234375,-114.2578125,0.0
1732201845.042569,-183.10546875,-105.95703125,-765.625,-159.1796875,0.0
1732201845.0464745,-177.734375,-104.4921875,-797.36328125,-150.87890625,0.0
1732201845.0503798,-146.97265625,-102.05078125,-715.8203125,-99.609375,0.0
1732201845.0542853,-154.78515625,-97.16796875,-617.1875,-104.00390625,0.0
1732201845.0581908,-188.4765625,-98.14453125,-669.921875,-136.71875,0.0
1732201845.0620964,-177.24609375,-135.25390625,-805.17578125,-116.69921875,0.0
1732201845.066002,-150.87890625,-100.5859375,-701.171875,-108.3984375,0.0
1732201845.0699074,-150.390625,-56.640625,-530.76171875,-99.609375,0.0
1732201845.073813,-135.25390625,-81.54296875,-636.23046875,-84.9609375,0.0
1732201845.0777252,-133.7890625,-77.1484375,-676.7578125,-107.421875,0.0
1732201845.0816307,-154.296875,-60.05859375,-595.703125,-132.32421875,0.0
1732201845.0855362,-164.55078125,-63.4765625,-545.8984375,-132.8125,0.0
1732201845.0894418,-189.453125,-82.03125,-548.33984375,-98.6328125,0.0
1732201845.0933473,-198.2421875,-85.44921875,-556.15234375,-63.96484375,0.0
1732201845.0972528,-187.98828125,-79.58984375,-553.22265625,-97.65625,0.0
1732201845.1011584,-193.84765625,-66.89453125,-516.11328125,-137.20703125,0.0
1732201845.105064,-195.3125,-90.8203125,-606.93359375,-117.67578125,0.0
1732201845.1089694,-242.1875,-94.7265625,-608.88671875,-88.8671875,0.0
1732201845.112875,-274.90234375,-36.62109375,-259.765625,-90.33203125,0.0
1732201845.1167803,-238.76953125,-62.01171875,-360.83984375,-110.3515625,0.0
1732201845.1206858,-240.72265625,-83.984375,-491.69921875,-96.19140625,0.0
1732201845.1245978,-281.25,-67.3828125,-376.953125,-87.40234375,0.0
1732201845.1285033,-286.62109375,-70.80078125,-271.97265625,-97.65625,0.0
1732201845.1324089,-296.38671875,-86.9140625,-285.64453125,-95.703125,0.0
1732201845.1363144,-322.75390625,-84.9609375,-301.7578125,-81.54296875,0.0
1732201845.14022,-312.5,-84.9609375,-311.5234375,-86.9140625,0.0
1732201845.1441255,-310.546875,-98.6328125,-395.01953125,-116.2109375,0.0
1732201845.148031,-338.8671875,-85.44921875,-303.22265625,-105.95703125,0.0
1732201845.1519363,-335.44921875,-97.16796875,-354.98046875,-87.40234375,0.0
1732201845.1558418,-317.3828125,-78.61328125,-303.22265625,-98.6328125,0.0
1732201845.1597474,-307.12890625,-46.38671875,-172.8515625,-113.76953125,0.0
1732201845.163653,-275.87890625,-66.89453125,-301.7578125,-105.46875,0.0
1732201845.1675584,-271.97265625,-58.10546875,-240.72265625,-77.63671875,0.0
1732201845.1714702,-282.71484375,-22.94921875,-51.26953125,-60.546875,0.0
1732201845.1753755,-292.96875,-15.13671875,-20.5078125,-82.03125,0.0
1732201845.179281,-291.50390625,-41.015625,-264.6484375,-94.23828125,0.0
1732201845.1831865,-262.20703125,-40.52734375,-406.73828125,-93.26171875,0.0
1732201845.187092,-234.375,-24.90234375,-284.66796875,-87.890625,0.0
1732201845.1909976,-195.3125,-14.6484375,-222.65625,-83.49609375,0.0
1732201845.1949031,-187.01171875,-24.4140625,-388.671875,-83.0078125,0.0
1732201845.1988087,-160.15625,-20.99609375,-557.12890625,-91.796875,0.0
1732201845.2027142,-145.5078125,32.2265625,-344.23828125,-125.0,0.0
1732201845.2066197,-138.671875,32.2265625,-313.4765625,-119.62890625,0.0
1732201845.2105253,-131.34765625,3.41796875,-360.3515625,-100.5859375,0.0
1732201845.2144308,-103.02734375,12.20703125,-334.9609375,-116.69921875,0.0
1732201845.218342,-111.328125,21.97265625,-311.5234375,-129.8828125,0.0
1732201845.2222476,-101.5625,-6.34765625,-405.76171875,-125.9765625,0.0
1732201845.2261531,-4.39453125,-30.2734375,-492.1875,-110.83984375,0.0
1732201845.2300587,-65.4296875,-7.32421875,-336.9140625,-103.02734375,0.0
1732201845.2339642,-103.02734375,0.9765625,-300.29296875,-100.09765625,0.0
1732201845.2378697,-69.3359375,-24.4140625,-429.6875,-122.0703125,0.0
1732201845.241775,-62.98828125,-69.82421875,-665.52734375,-135.7421875,0.0
1732201845.2456806,-49.31640625,-48.33984375,-648.92578125,-121.09375,0.0
1732201845.249586,-43.45703125,16.11328125,-241.2109375,-112.79296875,0.0
1732201845.2534916,-70.80078125,-15.13671875,-288.0859375,-107.421875,0.0
1732201845.2573972,-64.453125,-41.015625,-409.66796875,-117.1875,0.0
1732201845.2613027,-19.04296875,-38.0859375,-396.484375,-117.67578125,0.0
1732201845.2652137,-22.94921875,-33.69140625,-370.1171875,-108.3984375,0.0
1732201845.2691193,-44.921875,-39.0625,-395.5078125,-97.65625,0.0
1732201845.2730246,-59.5703125,-44.43359375,-389.6484375,-96.6796875,0.0
1732201845.27693,-74.70703125,-40.52734375,-321.2890625,-109.86328125,0.0
1732201845.2808356,-81.0546875,-44.921875,-394.53125,-125.9765625,0.0
1732201845.2847412,-56.640625,-74.21875,-619.62890625,-106.4453125,0.0
1732201845.2886467,-43.9453125,-62.98828125,-583.0078125,-76.66015625,0.0
1732201845.2925522,-75.68359375,-7.32421875,-277.34375,-85.9375,0.0
1732201845.2964578,-62.98828125,-20.5078125,-327.63671875,-119.62890625,0.0
1732201845.3003633,-69.3359375,-62.98828125,-477.05078125,-111.81640625,0.0
1732201845.3042688,-106.93359375,-69.82421875,-562.5,-75.68359375,0.0
1732201845.3081744,-94.23828125,-31.73828125,-377.9296875,-56.15234375,0.0
1732201845.3120878,-90.8203125,-28.3203125,-251.46484375,-43.45703125,0.0
1732201845.315993,-112.3046875,-48.828125,-353.02734375,-67.3828125,0.0
1732201845.3198986,-110.3515625,-40.0390625,-371.58203125,-108.3984375,0.0
1732201845.3238041,-123.046875,-36.1328125,-346.6796875,-129.39453125,0.0
1732201845.3277097,-149.4140625,-33.69140625,-336.42578125,-121.09375,0.0
1732201845.3316152,-124.0234375,-47.8515625,-349.609375,-70.80078125,0.0
1732201845.3355207,-133.30078125,-50.29296875,-304.6875,-41.50390625,0.0
1732201845.3394263,-173.828125,-32.71484375,-264.6484375,-64.94140625,0.0
1732201845.3433318,-164.55078125,-58.10546875,-373.046875,-87.40234375,0.0
1732201845.3472373,-158.69140625,-76.66015625,-428.22265625,-73.73046875,0.0
1732201845.351143,-181.15234375,-40.52734375,-138.671875,-46.38671875,0.0
1732201845.3550484,-204.58984375,-43.45703125,-59.5703125,-67.87109375,0.0
1732201845.358961,-239.74609375,-70.80078125,-330.56640625,-103.515625,0.0
1732201845.3628666,-215.33203125,-61.5234375,-366.2109375,-84.9609375,0.0
1732201845.3667722,-166.015625,-40.0390625,-141.6015625,-52.734375,0.0
1732201845.3706777,-164.55078125,-33.69140625,45.41015625,-32.71484375,0.0
1732201845.3745832,-189.94140625,-54.19921875,-74.21875,-33.203125,0.0
1732201845.3784888,-232.421875,-89.35546875,-316.89453125,-73.2421875,0.0
1732201845.3823943,-218.75,-75.68359375,-219.7265625,-46.875,0.0
1732201845.3862998,-186.03515625,-41.9921875,2.44140625,7.8125,0.0
1732201845.3902054,-184.08203125,-74.70703125,-145.99609375,29.296875,0.0
1732201845.394111,-292.48046875,-86.9140625,-249.51171875,42.48046875,0.0
1732201845.3980165,-278.80859375,-47.8515625,-50.78125,28.80859375,0.0
1732201845.401922,-114.2578125,-46.38671875,-172.8515625,33.203125,0.0
1732201845.4058344,-129.8828125,-36.62109375,-203.125,35.64453125,0.0
1732201845.40974,-144.04296875,-5.37109375,-21.97265625,56.15234375,0.0
1732201845.4136455,-109.375,-7.32421875,34.66796875,80.56640625,0.0
1732201845.417551,-128.41796875,-33.69140625,-149.4140625,77.1484375,0.0
1732201845.4214566,-167.96875,-36.1328125,-289.55078125,60.546875,0.0
1732201845.425362,-172.8515625,-41.9921875,-332.51953125,34.66796875,0.0
1732201845.4292676,-154.296875,-20.5078125,-145.99609375,45.41015625,0.0
1732201845.4331732,-163.57421875,-14.6484375,-22.94921875,67.3828125,0.0
1732201845.4370785,-161.62109375,-72.75390625,-352.05078125,50.78125,0.0
1732201845.440984,-151.85546875,-55.17578125,-398.4375,38.57421875,0.0
1732201845.4448895,-141.11328125,-2.9296875,-167.48046875,58.59375,0.0
1732201845.448795,-163.57421875,-19.53125,-132.8125,68.359375,0.0
1732201845.4527073,-191.89453125,-24.4140625,-84.47265625,57.12890625,0.0
1732201845.4566128,-140.13671875,-10.25390625,-13.18359375,61.03515625,0.0
1732201845.4605184,-93.26171875,-22.4609375,-38.57421875,75.1953125,0.0
1732201845.464424,-110.83984375,-40.52734375,-226.5625,79.58984375,0.0
1732201845.4683294,-180.6640625,-38.0859375,-251.953125,58.59375,0.0
1732201845.472235,-145.99609375,-37.59765625,-75.1953125,66.40625,0.0
1732201845.4761405,-81.0546875,-36.1328125,-95.21484375,42.96875,0.0
1732201845.480046,-88.37890625,-51.7578125,-390.13671875,7.8125,0.0
1732201845.4839516,-92.28515625,-51.7578125,-512.20703125,31.73828125,0.0
1732201845.487857,-71.77734375,7.8125,-91.796875,62.98828125,0.0
1732201845.4917624,-59.08203125,2.9296875,-62.01171875,52.24609375,0.0
1732201845.495668,-57.6171875,-30.76171875,-212.890625,41.015625,0.0
1732201845.49958,-59.5703125,-32.71484375,-193.359375,20.01953125,0.0
1732201845.5034854,-30.76171875,-29.296875,-232.91015625,-4.8828125,0.0
1732201845.507391,-5.37109375,-31.25,-262.20703125,41.50390625,0.0
1732201845.5112965,-5.859375,-28.80859375,-198.73046875,40.52734375,0.0
1732201845.515202,-2.9296875,-39.0625,-156.73828125,33.69140625,0.0
1732201845.5191076,1.46484375,-66.89453125,-332.51953125,39.0625,0.0
1732201845.523013,-6.8359375,-64.453125,-384.27734375,6.8359375,0.0
1732201845.5269186,-37.59765625,-77.1484375,-497.0703125,30.2734375,0.0
1732201845.5308242,-47.8515625,-43.9453125,-320.3125,38.57421875,0.0
1732201845.5347297,-52.24609375,-1.953125,-5.37109375,19.53125,0.0
1732201845.5386353,-62.5,-39.0625,-198.73046875,-24.90234375,0.0
1732201845.5425408,-47.8515625,-52.734375,-358.88671875,-7.8125,0.0
1732201845.5464523,-58.59375,-28.80859375,-189.94140625,61.5234375,0.0
1732201845.5503578,-107.91015625,-7.32421875,25.87890625,25.87890625,0.0
1732201845.5542634,-69.82421875,-37.109375,-88.37890625,2.9296875,0.0
1732201845.558169,-12.20703125,-41.9921875,-204.58984375,17.578125,0.0
1732201845.5620744,-49.31640625,-38.0859375,-205.078125,22.4609375,0.0
1732201845.56598,-78.125,-54.19921875,-273.92578125,10.7421875,0.0
1732201845.5698855,-37.59765625,-49.31640625,-307.6171875,15.13671875,0.0
1732201845.573791,-70.80078125,-40.0390625,-339.84375,25.390625,0.0
1732201845.5776966,-86.9140625,-1.953125,-62.01171875,5.37109375,0.0
1732201845.581602,-18.06640625,-21.484375,-104.00390625,30.76171875,0.0
1732201845.5855074,-45.41015625,-48.33984375,-266.6015625,-3.41796875,0.0
1732201845.589413,-62.5,-33.69140625,-161.62109375,1.953125,0.0
1732201845.5933242,-44.43359375,-13.671875,14.16015625,12.20703125,0.0
1732201845.5972297,-28.3203125,-8.7890625,-9.765625,-29.296875,0.0
1732201845.6011353,-54.19921875,-45.8984375,-219.23828125,-60.05859375,0.0
1732201845.6050408,-51.7578125,-31.25,-205.56640625,-116.69921875,0.0
1732201845.6089463,-59.5703125,-6.34765625,-95.21484375,-41.015625,0.0
1732201845.6128519,-71.2890625,-45.41015625,-125.48828125,-6.34765625,0.0
1732201845.6167574,-20.01953125,-75.68359375,-395.5078125,-21.97265625,0.0
1732201845.620663,-90.8203125,-48.828125,-441.89453125,-30.2734375,0.0
1732201845.6245685,-125.48828125,-25.390625,-203.61328125,-84.9609375,0.0
1732201845.628474,-44.921875,-52.734375,-201.66015625,-71.2890625,0.0
1732201845.6323793,-76.171875,-38.0859375,-157.2265625,-7.8125,0.0
1732201845.6362848,-77.63671875,-26.3671875,-59.5703125,-58.10546875,0.0
1732201845.6401958,14.6484375,-26.3671875,-188.4765625,-82.03125,0.0
1732201845.6441014,-4.39453125,-41.50390625,-393.5546875,-33.203125,0.0
1732201845.648007,-31.73828125,-40.52734375,-307.6171875,-31.25,0.0
1732201845.6519125,-76.66015625,-13.18359375,-78.61328125,-58.10546875,0.0
1732201845.655818,-51.7578125,-27.83203125,-122.0703125,-69.82421875,0.0
1732201845.6597233,6.8359375,-81.54296875,-490.234375,-83.0078125,0.0
1732201845.6636288,-9.765625,-94.23828125,-602.5390625,-135.25390625,0.0
1732201845.6675344,-41.9921875,-45.8984375,-269.04296875,-126.46484375,0.0
1732201845.67144,-152.34375,-15.13671875,-119.62890625,-108.88671875,0.0
1732201845.6753454,-131.8359375,-69.82421875,-317.3828125,-137.20703125,0.0
1732201845.679251,-55.6640625,-134.27734375,-542.48046875,-208.49609375,0.0
1732201845.6831565,-91.796875,-66.89453125,-368.1640625,-181.640625,0.0
1732201845.68707,-67.87109375,-34.1796875,-257.32421875,-32.2265625,0.0
1732201845.6909752,-90.8203125,-63.96484375,-230.46875,-121.09375,0.0
1732201845.6948807,-56.15234375,-50.29296875,-196.77734375,-195.3125,0.0
1732201845.6987863,13.671875,-57.12890625,-304.19921875,-151.85546875,0.0
1732201845.7026918,-32.2265625,-72.265625,-456.54296875,-88.8671875,0.0
1732201845.7065973,-41.9921875,-90.33203125,-442.3828125,-21.97265625,0.0
1732201845.7105029,32.71484375,-51.26953125,-238.76953125,-115.234375,0.0
1732201845.7144084,-20.5078125,-36.62109375,-89.35546875,-235.3515625,0.0
1732201845.718314,26.85546875,-83.984375,-244.62890625,-117.1875,0.0
1732201845.7222195,95.21484375,-66.40625,-448.2421875,47.36328125,0.0
1732201845.726125,-21.97265625,-49.8046875,-312.01171875,-2.44140625,0.0
1732201845.7300305,35.64453125,-65.4296875,-54.6875,-86.9140625,0.0
1732201845.7339435,44.921875,-105.46875,-118.1640625,-105.95703125,0.0
1732201845.737849,6.8359375,-109.375,-265.625,-198.2421875,0.0
1732201845.7417545,90.33203125,-54.6875,-248.046875,-181.15234375,0.0
1732201845.7456598,76.66015625,-61.03515625,-211.9140625,-25.390625,0.0
1732201845.7495654,152.34375,-85.44921875,-226.5625,109.375,0.0
1732201845.753471,126.46484375,-87.890625,-296.38671875,-14.6484375,0.0
1732201845.7573764,49.8046875,-106.93359375,-250.48828125,-175.29296875,0.0
1732201845.761282,80.078125,-91.30859375,-229.98046875,-116.69921875,0.0
1732201845.7651875,53.7109375,-123.046875,-390.13671875,-68.84765625,0.0
1732201845.769093,67.87109375,-122.55859375,-432.12890625,-41.015625,0.0
1732201845.7729986,76.66015625,-50.78125,-128.41796875,-16.6015625,0.0
1732201845.776904,104.98046875,-63.4765625,-140.13671875,-12.6953125,0.0
1732201845.7808168,146.97265625,-77.63671875,-251.953125,57.6171875,0.0
1732201845.7847223,122.55859375,-86.9140625,-248.046875,2.44140625,0.0
1732201845.7886279,116.2109375,-73.2421875,-86.42578125,2.9296875,0.0
1732201845.7925334,39.55078125,-89.84375,-9.765625,-55.6640625,0.0
1732201845.796439,42.96875,-104.4921875,-179.6875,-111.328125,0.0
1732201845.8003442,76.66015625,-104.4921875,-349.609375,-95.21484375,0.0
1732201845.8042498,32.2265625,-109.86328125,-294.921875,-74.70703125,0.0
1732201845.8081553,118.65234375,-84.47265625,-123.53515625,5.859375,0.0
1732201845.8120608,249.51171875,-103.515625,-306.640625,62.98828125,0.0
1732201845.8159664,165.52734375,-99.609375,-297.36328125,-15.625,0.0
1732201845.819872,86.42578125,-67.87109375,-171.38671875,-14.16015625,0.0
1732201845.8237774,121.09375,-97.16796875,-406.73828125,9.765625,0.0
1732201845.8276896,149.90234375,-90.8203125,-357.421875,9.765625,0.0
1732201845.8315952,126.953125,-66.40625,-115.72265625,-23.4375,0.0
1732201845.8355007,104.00390625,-74.21875,-93.75,-26.85546875,0.0
1732201845.8394063,92.28515625,-102.05078125,-352.05078125,17.578125,0.0
1732201845.8433118,60.05859375,-105.95703125,-486.328125,0.0,0.0
1732201845.8472173,20.99609375,-99.609375,-420.41015625,-12.6953125,0.0
1732201845.8511229,114.2578125,-77.63671875,-219.23828125,-4.8828125,0.0
1732201845.8550284,147.4609375,-99.12109375,-361.81640625,-11.23046875,0.0
1732201845.8589337,125.9765625,-117.67578125,-595.703125,-4.39453125,0.0
1732201845.8628392,110.3515625,-69.82421875,-362.79296875,-13.18359375,0.0
1732201845.8667448,36.1328125,-94.23828125,-410.15625,-18.5546875,0.0
1732201845.8706503,63.96484375,-116.69921875,-442.3828125,5.37109375,0.0
1732201845.8745623,67.3828125,-72.75390625,-347.16796875,16.11328125,0.0
1732201845.8784678,100.09765625,-58.10546875,-349.12109375,-7.32421875,0.0
1732201845.8823733,129.8828125,-85.44921875,-460.44921875,-7.8125,0.0
1732201845.8862789,113.76953125,-82.03125,-479.00390625,15.625,0.0
1732201845.8901844,117.67578125,-64.453125,-377.9296875,33.69140625,0.0
1732201845.89409,63.4765625,-72.265625,-401.85546875,8.7890625,0.0
1732201845.8979955,79.1015625,-81.0546875,-443.359375,-23.92578125,0.0
1732201845.901901,105.46875,-107.421875,-656.25,-9.765625,0.0
1732201845.9058065,92.28515625,-67.87109375,-599.609375,25.87890625,0.0
1732201845.909712,61.5234375,-9.27734375,-271.484375,27.34375,0.0
1732201845.9136176,69.82421875,-39.55078125,-330.56640625,20.99609375,0.0
1732201845.9175231,42.48046875,-59.08203125,-444.82421875,15.625,0.0
1732201845.9214346,-7.32421875,-56.640625,-411.1328125,3.90625,0.0
1732201845.9253402,64.453125,-65.4296875,-431.640625,11.71875,0.0
1732201845.9292457,91.30859375,-77.63671875,-484.86328125,14.16015625,0.0
1732201845.9331512,93.26171875,-62.01171875,-406.25,-8.7890625,0.0
1732201845.9370565,70.3125,-51.7578125,-377.44140625,-21.484375,0.0
1732201845.940962,69.3359375,-80.56640625,-518.5546875,-18.06640625,0.0
1732201845.9448676,61.5234375,-109.86328125,-679.6875,-9.765625,0.0
1732201845.9487731,47.36328125,-94.7265625,-633.30078125,10.25390625,0.0
1732201845.9526787,52.734375,-43.9453125,-308.59375,16.6015625,0.0
1732201845.9565842,32.71484375,-53.22265625,-340.8203125,15.13671875,0.0
1732201845.9604897,35.64453125,-91.796875,-547.36328125,-15.13671875,0.0
1732201845.9643953,36.62109375,-89.84375,-580.078125,-35.15625,0.0
1732201845.9683065,28.80859375,-62.01171875,-413.0859375,-14.6484375,0.0
1732201845.972212,39.0625,-68.359375,-375.0,0.48828125,0.0
1732201845.9761176,27.83203125,-88.37890625,-471.19140625,13.18359375,0.0
1732201845.980023,22.94921875,-87.890625,-506.34765625,6.8359375,0.0
1732201845.9839284,29.296875,-90.33203125,-591.796875,-0.9765625,0.0
1732201845.987834,1.46484375,-87.890625,-598.6328125,-4.8828125,0.0
1732201845.9917395,19.53125,-95.703125,-660.15625,2.9296875,0.0
1732201845.995645,20.5078125,-77.1484375,-638.671875,-4.8828125,0.0
1732201845.9995506,-12.20703125,-58.59375,-521.484375,-26.3671875,0.0
1732201846.003456,-23.92578125,-92.7734375,-652.83203125,-34.1796875,0.0
1732201846.0073617,-26.3671875,-90.8203125,-629.39453125,-37.109375,0.0
1732201846.0112672,-26.3671875,-70.3125,-494.140625,-28.3203125,0.0
1732201846.0151808,-49.8046875,-84.47265625,-480.46875,-29.78515625,0.0
1732201846.0190864,-57.12890625,-114.2578125,-657.71484375,-34.1796875,0.0
1732201846.022992,-70.80078125,-112.3046875,-784.1796875,-23.92578125,0.0
1732201846.0268974,-81.54296875,-90.33203125,-648.4375,-9.765625,0.0
1732201846.030803,-42.96875,-83.0078125,-551.7578125,-12.6953125,0.0
1732201846.0347085,-47.8515625,-118.1640625,-733.88671875,-27.34375,0.0
1732201846.038614,-86.42578125,-135.25390625,-872.55859375,-38.57421875,0.0
1732201846.0425196,-60.546875,-96.6796875,-756.8359375,-52.734375,0.0
1732201846.046425,-62.98828125,-79.58984375,-707.03125,-41.50390625,0.0
1732201846.0503304,-56.640625,-91.30859375,-672.36328125,-27.83203125,0.0
1732201846.054236,-34.1796875,-99.609375,-738.28125,-28.80859375,0.0
1732201846.0581415,-46.875,-83.0078125,-741.69921875,-51.26953125,0.0
1732201846.062055,-49.8046875,-85.9375,-748.046875,-77.1484375,0.0
1732201846.0659604,-66.40625,-93.75,-788.57421875,-82.51953125,0.0
1732201846.069866,-72.265625,-72.265625,-666.50390625,-70.3125,0.0
1732201846.0737715,-68.84765625,-69.3359375,-623.53515625,-62.98828125,0.0
1732201846.077677,-59.5703125,-87.40234375,-726.07421875,-71.2890625,0.0
1732201846.0815825,-70.3125,-102.5390625,-832.51953125,-81.0546875,0.0
1732201846.085488,-94.7265625,-85.9375,-821.77734375,-60.546875,0.0
1732201846.0893936,-119.140625,-56.15234375,-673.33984375,-27.83203125,0.0
1732201846.0932992,-119.62890625,-65.91796875,-679.19921875,-35.64453125,0.0
1732201846.0972047,-101.5625,-113.76953125,-831.0546875,-52.24609375,0.0
1732201846.1011102,-99.12109375,-98.6328125,-832.03125,-57.12890625,0.0
1732201846.1050158,-106.4453125,-57.6171875,-743.65234375,-70.80078125,0.0
1732201846.1089287,-99.12109375,-71.2890625,-741.2109375,-66.89453125,0.0
1732201846.1128342,-88.37890625,-68.84765625,-732.91015625,-62.98828125,0.0
1732201846.1167397,-113.76953125,-60.05859375,-689.453125,-68.359375,0.0
1732201846.1206453,-125.48828125,-73.2421875,-741.2109375,-77.63671875,0.0
1732201846.1245508,-128.41796875,-90.33203125,-826.171875,-78.125,0.0
1732201846.1284564,-132.32421875,-87.40234375,-823.2421875,-65.4296875,0.0
1732201846.132362,-120.60546875,-62.5,-673.828125,-79.58984375,0.0
1732201846.1362674,-127.44140625,-58.10546875,-620.1171875,-85.9375,0.0
1732201846.1401727,-147.94921875,-105.46875,-793.45703125,-83.0078125,0.0
1732201846.1440783,-162.109375,-124.51171875,-919.921875,-88.37890625,0.0
1732201846.1479838,-159.1796875,-72.75390625,-768.5546875,-87.890625,0.0
1732201846.1518893,-163.0859375,-58.59375,-655.76171875,-90.33203125,0.0
1732201846.155802,-173.828125,-77.1484375,-680.6640625,-118.1640625,0.0
1732201846.1597075,-181.15234375,-81.0546875,-718.26171875,-141.6015625,0.0
1732201846.163613,-205.56640625,-75.68359375,-697.75390625,-122.0703125,0.0
1732201846.1675186,-218.26171875,-81.0546875,-676.7578125,-95.21484375,0.0
1732201846.171424,-214.35546875,-80.56640625,-668.45703125,-82.03125,0.0
1732201846.1753294,-208.0078125,-85.9375,-685.546875,-94.7265625,0.0
1732201846.179235,-227.05078125,-86.42578125,-696.77734375,-118.1640625,0.0
1732201846.1831405,-249.0234375,-73.73046875,-664.0625,-124.51171875,0.0
1732201846.187046,-241.2109375,-110.83984375,-803.22265625,-100.5859375,0.0
1732201846.1909516,-244.140625,-84.9609375,-712.890625,-86.42578125,0.0
1732201846.1948571,-245.1171875,-20.5078125,-429.6875,-105.95703125,0.0
1732201846.1987627,-245.60546875,-50.29296875,-559.08203125,-121.58203125,0.0
1732201846.2026749,-260.25390625,-67.3828125,-659.66796875,-128.41796875,0.0
1732201846.2065804,-261.71875,-45.8984375,-527.83203125,-132.32421875,0.0
1732201846.210486,-275.390625,-43.45703125,-426.26953125,-118.1640625,0.0
1732201846.2143915,-313.96484375,-67.3828125,-540.0390625,-116.2109375,0.0
1732201846.218297,-331.54296875,-69.82421875,-630.37109375,-125.0,0.0
1732201846.2222025,-279.78515625,-69.82421875,-620.1171875,-123.046875,0.0
1732201846.226108,-226.5625,-54.6875,-509.27734375,-112.79296875,0.0
1732201846.2300134,-230.95703125,-63.4765625,-536.1328125,-99.609375,0.0
1732201846.233919,-215.8203125,-75.1953125,-621.09375,-98.6328125,0.0
1732201846.2378244,-204.58984375,-26.3671875,-375.0,-115.72265625,0.0
1732201846.24173,-219.7265625,-47.8515625,-489.74609375,-133.30078125,0.0
1732201846.2456355,-214.84375,-62.01171875,-563.96484375,-132.8125,0.0
1732201846.24955,-197.265625,-25.87890625,-358.88671875,-119.140625,0.0
1732201846.2534556,-190.91796875,-17.08984375,-267.578125,-122.55859375,0.0
1732201846.2573612,-170.8984375,-37.109375,-343.26171875,-132.32421875,0.0
1732201846.2612667,-148.92578125,-47.36328125,-456.0546875,-133.30078125,0.0
1732201846.2651722,-162.109375,-42.96875,-430.17578125,-128.90625,0.0
1732201846.2690778,-193.359375,-47.36328125,-397.4609375,-112.79296875,0.0
1732201846.2729833,-202.1484375,-47.8515625,-327.1484375,-110.83984375,0.0
1732201846.2768888,-188.4765625,-79.58984375,-498.046875,-107.421875,0.0
1732201846.2807944,-179.19921875,-61.03515625,-521.484375,-103.02734375,0.0
1732201846.2846997,-193.359375,-24.90234375,-299.8046875,-100.09765625,0.0
1732201846.2886052,-205.078125,-45.8984375,-287.59765625,-94.7265625,0.0
1732201846.2925107,-187.98828125,-46.875,-213.37890625,-99.609375,0.0
1732201846.2964222,-178.7109375,-38.57421875,-157.71484375,-97.65625,0.0
1732201846.3003278,-163.57421875,-45.41015625,-238.76953125,-98.14453125,0.0
1732201846.3042333,-180.6640625,-70.80078125,-377.44140625,-105.95703125,0.0
1732201846.3081388,-222.16796875,-56.640625,-265.625,-97.65625,0.0
1732201846.3120444,-221.6796875,-31.25,-34.1796875,-96.19140625,0.0
1732201846.31595,-212.40234375,-58.10546875,-115.72265625,-104.4921875,0.0
1732201846.3198555,-198.2421875,-78.61328125,-390.625,-119.62890625,0.0
1732201846.323761,-188.4765625,-60.546875,-422.8515625,-121.58203125,0.0
1732201846.3276665,-160.15625,-36.62109375,-151.85546875,-102.5390625,0.0
1732201846.331572,-150.390625,-26.3671875,72.265625,-79.58984375,0.0
1732201846.3354776,-162.109375,-76.66015625,-132.32421875,-88.8671875,0.0
1732201846.3393831,-150.87890625,-90.8203125,-317.87109375,-113.28125,0.0
1732201846.3432941,-137.20703125,-32.2265625,-16.6015625,-109.86328125,0.0
1732201846.3471997,-131.8359375,-44.921875,17.578125,-80.078125,0.0
1732201846.3511052,-142.08984375,-44.43359375,96.19140625,-76.66015625,0.0
1732201846.3550107,-154.78515625,-32.2265625,145.5078125,-93.26171875,0.0
1732201846.3589163,-162.59765625,-53.7109375,41.50390625,-100.5859375,0.0
1732201846.3628218,-154.78515625,-73.2421875,-58.10546875,-105.95703125,0.0
1732201846.3667274,-160.15625,-94.7265625,-225.09765625,-83.984375,0.0
1732201846.370633,-141.11328125,-54.6875,-56.15234375,-38.57421875,0.0
1732201846.3745384,-130.37109375,0.9765625,223.14453125,-60.546875,0.0
1732201846.3784437,-158.203125,-24.4140625,88.37890625,-97.65625,0.0
1732201846.3823493,-144.04296875,-47.8515625,-71.2890625,-84.9609375,0.0
1732201846.3862548,-137.6953125,-25.390625,-0.48828125,-76.66015625,0.0
1732201846.3901658,-157.2265625,14.16015625,195.80078125,-64.453125,0.0
1732201846.3940713,-142.578125,3.90625,154.78515625,-70.80078125,0.0
1732201846.3979769,-164.0625,-4.39453125,81.0546875,-91.30859375,0.0
1732201846.4018824,-190.91796875,1.953125,61.5234375,-82.03125,0.0
1732201846.405788,-191.40625,2.9296875,78.125,-89.35546875,0.0
1732201846.4096935,-175.78125,-13.18359375,-8.30078125,-76.171875,0.0
1732201846.413599,-160.64453125,-9.27734375,-72.265625,-44.43359375,0.0
1732201846.4175045,-157.71484375,32.71484375,95.21484375,-49.8046875,0.0
1732201846.4214098,-152.83203125,19.04296875,85.44921875,-57.12890625,0.0
1732201846.4253154,-130.37109375,-9.765625,-38.0859375,-66.40625,0.0
1732201846.429221,-110.3515625,-3.41796875,-21.97265625,-51.7578125,0.0
1732201846.4331264,-95.703125,25.87890625,127.9296875,-24.4140625,0.0
1732201846.4370399,-47.8515625,27.83203125,98.14453125,-3.90625,0.0
1732201846.4409454,-63.96484375,7.32421875,-111.328125,-7.8125,0.0
1732201846.444851,-109.375,17.08984375,-72.75390625,-23.92578125,0.0
1732201846.4487565,-132.32421875,36.1328125,95.21484375,-6.8359375,0.0
1732201846.452662,-175.29296875,30.76171875,114.2578125,-13.18359375,0.0
1732201846.4565673,-170.41015625,2.44140625,-52.734375,-13.671875,0.0
1732201846.4604728,-143.06640625,-8.30078125,-255.37109375,0.48828125,0.0
1732201846.4643784,-134.27734375,17.578125,-162.109375,-14.6484375,0.0
1732201846.468284,-115.234375,31.73828125,-50.78125,-11.23046875,0.0
1732201846.4721894,-94.23828125,8.7890625,-148.4375,10.25390625,0.0
1732201846.476095,-116.2109375,22.94921875,-92.7734375,13.671875,0.0
1732201846.4800005,-125.0,37.109375,-118.1640625,-0.9765625,0.0
1732201846.4839134,-128.41796875,14.16015625,-347.65625,2.9296875,0.0
1732201846.487819,-131.34765625,10.7421875,-351.07421875,28.3203125,0.0
1732201846.4917245,-129.39453125,26.85546875,-166.9921875,41.015625,0.0
1732201846.49563,-136.71875,10.7421875,-239.2578125,30.2734375,0.0
1732201846.4995356,-139.6484375,-22.4609375,-501.46484375,6.34765625,0.0
1732201846.503441,-120.60546875,-24.4140625,-611.81640625,-7.8125,0.0
1732201846.5073466,-99.12109375,10.7421875,-455.078125,-12.6953125,0.0
1732201846.5112522,-102.5390625,34.66796875,-280.76171875,-6.34765625,0.0
1732201846.5151577,-85.44921875,-11.23046875,-478.515625,0.0,0.0
1732201846.5190632,-77.63671875,-32.2265625,-696.2890625,-5.37109375,0.0
1732201846.5229688,-79.1015625,1.953125,-603.515625,-8.30078125,0.0
1732201846.526874,-73.2421875,5.37109375,-555.17578125,-5.37109375,0.0
1732201846.530787,-76.66015625,3.41796875,-471.19140625,0.48828125,0.0
1732201846.5346925,-77.1484375,2.9296875,-452.63671875,-18.06640625,0.0
1732201846.538598,-61.03515625,4.39453125,-476.07421875,-46.875,0.0
1732201846.5425036,-35.64453125,-13.18359375,-588.37890625,-32.2265625,0.0
1732201846.5464091,-35.64453125,-26.3671875,-665.0390625,-27.83203125,0.0
1732201846.5503147,-60.546875,-23.92578125,-606.93359375,-31.25,0.0
1732201846.5542202,-44.43359375,-19.04296875,-573.2421875,-25.87890625,0.0
1732201846.5581257,-24.90234375,-23.92578125,-643.06640625,-51.26953125,0.0
1732201846.562031,-43.9453125,-58.59375,-792.48046875,-83.0078125,0.0
1732201846.5659366,-66.89453125,-30.76171875,-701.66015625,-65.4296875,0.0
1732201846.569842,-54.6875,16.11328125,-466.30859375,-53.22265625,0.0
1732201846.5737476,-45.8984375,-15.625,-501.46484375,-65.4296875,0.0
1732201846.57766,-57.6171875,-36.1328125,-578.61328125,-37.59765625,0.0
1732201846.5815656,-54.6875,-16.11328125,-575.68359375,-28.80859375,0.0
1732201846.585471,-58.59375,-7.8125,-581.54296875,-34.1796875,0.0
1732201846.5893764,-44.43359375,-12.20703125,-576.66015625,-31.25,0.0
1732201846.593282,-36.1328125,-7.8125,-578.61328125,-36.1328125,0.0
1732201846.5971875,-51.7578125,-16.6015625,-589.35546875,-33.203125,0.0
1732201846.601093,-35.15625,-5.859375,-541.9921875,-38.57421875,0.0
1732201846.6049986,-23.4375,-19.53125,-670.41015625,-51.7578125,0.0
1732201846.6089041,-19.04296875,-33.203125,-701.66015625,-31.25,0.0
1732201846.6128097,-35.64453125,11.23046875,-435.546875,-0.48828125,0.0
1732201846.6167152,-43.9453125,-7.8125,-542.96875,-6.8359375,0.0
1732201846.6206207,-35.15625,-25.87890625,-653.3203125,-46.38671875,0.0
1732201846.6245325,-23.92578125,-5.37109375,-582.03125,-45.41015625,0.0
1732201846.628438,-51.26953125,14.6484375,-475.09765625,9.27734375,0.0
1732201846.6323435,-7.8125,22.4609375,-444.3359375,10.25390625,0.0
1732201846.636249,78.61328125,11.23046875,-517.08984375,-8.7890625,0.0
1732201846.6401546,46.38671875,2.9296875,-560.546875,-3.41796875,0.0
1732201846.6440601,32.71484375,-15.625,-644.53125,-15.625,0.0
1732201846.6479657,-15.13671875,0.0,-566.40625,-42.48046875,0.0
1732201846.6518712,-35.15625,-13.18359375,-620.60546875,-15.13671875,0.0
1732201846.6557767,9.765625,-5.859375,-605.95703125,22.4609375,0.0
1732201846.6596823,4.39453125,16.11328125,-468.75,-4.8828125,0.0
1732201846.6635876,4.8828125,-19.53125,-581.0546875,-30.2734375,0.0
1732201846.667493,1.46484375,-26.3671875,-609.375,-25.87890625,0.0
1732201846.6714048,-22.4609375,-6.8359375,-451.171875,-31.73828125,0.0
1732201846.6753104,-33.69140625,-16.11328125,-328.125,-61.5234375,0.0
1732201846.679216,-31.73828125,-53.22265625,-498.53515625,-62.98828125,0.0
1732201846.6831214,-15.625,-39.0625,-583.0078125,-5.37109375,0.0
1732201846.687027,-1.46484375,-12.20703125,-438.4765625,31.73828125,0.0
1732201846.6909325,27.83203125,-18.5546875,-333.49609375,25.87890625,0.0
1732201846.694838,23.4375,-30.2734375,-444.82421875,13.18359375,0.0
1732201846.6987433,-13.18359375,-38.0859375,-558.59375,-2.44140625,0.0
1732201846.7026489,-4.8828125,-10.7421875,-298.33984375,-11.23046875,0.0
1732201846.7065544,39.0625,-6.34765625,-219.23828125,0.48828125,0.0
1732201846.71046,39.55078125,-21.97265625,-196.77734375,-9.765625,0.0
1732201846.7143655,-3.41796875,-26.3671875,-118.65234375,-37.59765625,0.0
1732201846.7182767,-69.82421875,-40.0390625,-71.77734375,-92.28515625,0.0
1732201846.7221823,-65.91796875,-48.828125,-200.1953125,-80.56640625,0.0
1732201846.7260878,32.2265625,-27.34375,-282.2265625,14.6484375,0.0
1732201846.7299933,70.3125,-12.20703125,-71.77734375,0.48828125,0.0
1732201846.7338989,-54.19921875,-35.64453125,-30.2734375,-104.00390625,0.0
1732201846.7378044,-82.51953125,-69.3359375,-190.4296875,-126.46484375,0.0
1732201846.74171,58.59375,-80.56640625,-446.2890625,-35.15625,0.0
1732201846.7456155,22.4609375,-30.76171875,-341.30859375,5.859375,0.0
1732201846.7495208,-7.32421875,14.16015625,62.01171875,-30.2734375,0.0
1732201846.7534263,1.46484375,-52.24609375,-3.90625,-89.35546875,0.0
1732201846.7573318,33.203125,-44.921875,-69.3359375,-73.2421875,0.0
1732201846.7612374,-3.41796875,-43.45703125,-50.29296875,-117.67578125,0.0
1732201846.7651484,-60.546875,-86.9140625,-32.2265625,-147.94921875,0.0
1732201846.769054,-39.55078125,-64.94140625,-22.94921875,-75.68359375,0.0
1732201846.7729595,122.0703125,-43.45703125,2.44140625,12.20703125,0.0
1732201846.776865,196.77734375,-26.3671875,70.80078125,62.01171875,0.0
1732201846.7807705,-83.49609375,-107.91015625,-34.66796875,-200.68359375,0.0
1732201846.784676,10.25390625,-131.34765625,-282.2265625,-205.078125,0.0
1732201846.7885816,149.4140625,-91.796875,-270.99609375,-96.19140625,0.0
1732201846.7924871,182.6171875,-41.015625,13.18359375,-51.26953125,0.0
1732201846.7963924,103.02734375,-31.73828125,120.1171875,-77.63671875,0.0
1732201846.800298,-1.953125,-71.2890625,-164.0625,-83.984375,0.0
1732201846.8042035,77.63671875,-92.7734375,-375.0,-74.70703125,0.0
1732201846.808109,65.4296875,-56.15234375,41.9921875,-127.44140625,0.0
1732201846.8120224,139.16015625,-23.92578125,222.16796875,55.17578125,0.0
1732201846.815928,138.18359375,-67.3828125,134.27734375,-57.6171875,0.0
1732201846.8198335,97.16796875,-86.9140625,94.7265625,-255.859375,0.0
1732201846.8237388,154.78515625,-62.5,95.703125,-122.55859375,0.0
1732201846.8276443,243.1640625,-31.73828125,141.6015625,41.9921875,0.0
1732201846.83155,242.67578125,-53.22265625,157.2265625,60.546875,0.0
1732201846.8354554,115.234375,-77.63671875,162.59765625,-59.08203125,0.0
1732201846.839361,54.6875,-83.49609375,134.27734375,-121.09375,0.0
1732201846.8432665,119.62890625,-94.7265625,17.578125,-57.6171875,0.0
1732201846.847172,130.37109375,-84.9609375,62.98828125,-42.96875,0.0
1732201846.8510776,32.71484375,-91.796875,206.54296875,-168.45703125,0.0
1732201846.854983,-39.55078125,-92.28515625,215.33203125,-208.984375,0.0
1732201846.858896,139.16015625,-77.1484375,53.22265625,-59.08203125,0.0
1732201846.8628016,232.91015625,-82.03125,-132.32421875,51.26953125,0.0
1732201846.866707,141.11328125,-69.3359375,7.32421875,-41.015625,0.0
1732201846.8706126,146.484375,-60.05859375,174.31640625,-65.4296875,0.0
1732201846.8745182,77.63671875,-107.91015625,48.33984375,-66.89453125,0.0
1732201846.8784237,101.07421875,-119.62890625,-90.8203125,-83.0078125,0.0
1732201846.8823292,108.88671875,-119.140625,-163.0859375,-94.23828125,0.0
1732201846.8862348,89.84375,-99.609375,-40.0390625,-85.44921875,0.0
1732201846.8901403,136.71875,-80.078125,-90.8203125,69.82421875,0.0
1732201846.8940458,82.03125,-119.62890625,-214.35546875,-26.3671875,0.0
1732201846.8979514,38.0859375,-95.703125,-30.2734375,-113.76953125,0.0
1732201846.9018567,32.2265625,-91.796875,-232.91015625,-26.3671875,0.0
1732201846.9057693,86.42578125,-101.07421875,-261.71875,-75.1953125,0.0
1732201846.909675,114.2578125,-69.3359375,-38.57421875,-5.859375,0.0
1732201846.9135804,67.3828125,-67.3828125,56.640625,4.39453125,0.0
1732201846.917486,69.82421875,-91.30859375,-21.484375,-34.66796875,0.0
1732201846.9213915,90.33203125,-96.6796875,-229.4921875,-35.15625,0.0
1732201846.925297,80.56640625,-100.5859375,-333.984375,-26.85546875,0.0
1732201846.9292026,36.1328125,-77.1484375,-118.1640625,-9.27734375,0.0
1732201846.933108,42.96875,-59.08203125,30.2734375,-19.04296875,0.0
1732201846.9370134,74.70703125,-114.74609375,-299.31640625,-39.0625,0.0
1732201846.940919,121.09375,-90.33203125,-394.04296875,-2.44140625,0.0
1732201846.9448245,96.6796875,-48.33984375,-180.17578125,42.96875,0.0
1732201846.94873,82.03125,-79.58984375,-170.41015625,0.9765625,0.0
1732201846.9526424,61.5234375,-93.26171875,-214.84375,-12.6953125,0.0
1732201846.956548,53.7109375,-72.265625,-173.828125,-31.25,0.0
1732201846.9604535,79.58984375,-65.4296875,-184.5703125,-89.84375,0.0
1732201846.9643588,94.7265625,-81.54296875,-365.234375,2.44140625,0.0
1732201846.9682643,97.16796875,-66.89453125,-377.44140625,29.78515625,0.0
1732201846.9721699,-5.37109375,-67.3828125,-290.0390625,-45.8984375,0.0
1732201846.9760754,47.8515625,-53.22265625,-227.05078125,-41.9921875,0.0
1732201846.979981,98.6328125,-77.63671875,-434.5703125,-42.48046875,0.0
1732201846.9838865,54.6875,-94.23828125,-620.60546875,-28.80859375,0.0
1732201846.987792,53.7109375,-41.9921875,-307.12890625,40.0390625,0.0
1732201846.9916975,1.953125,-50.29296875,-292.48046875,41.015625,0.0
1732201846.995603,-20.5078125,-69.3359375,-352.5390625,-26.3671875,0.0
1732201846.9995148,16.6015625,-75.1953125,-362.3046875,-52.24609375,0.0
1732201847.0034204,35.15625,-65.91796875,-401.85546875,-17.08984375,0.0
1732201847.007326,34.1796875,-61.03515625,-403.3203125,-25.390625,0.0
1732201847.0112314,9.27734375,-79.1015625,-400.390625,-35.64453125,0.0
1732201847.015137,34.1796875,-62.98828125,-384.765625,21.484375,0.0
