Timestamp,TP9,AF7,AF8,TP10,RightAUX

1732199471.684308,-157.2265625,170.41015625,149.90234375,153.80859375,0.0
1732199471.6882136,-158.69140625,148.92578125,-80.56640625,93.75,0.0
1732199471.6921191,-140.13671875,173.33984375,34.1796875,150.390625,0.0
1732199471.6960247,-142.578125,204.1015625,294.43359375,247.55859375,0.0
1732199471.6999302,-168.9453125,207.03125,318.359375,246.58203125,0.0
1732199471.7038357,-165.52734375,144.04296875,-83.49609375,175.29296875,0.0
1732199471.7077413,-96.19140625,150.87890625,-175.29296875,94.23828125,0.0
1732199471.7116468,-68.84765625,232.421875,282.71484375,121.58203125,0.0
1732199471.7155523,-89.35546875,226.07421875,357.421875,215.8203125,0.0
1732199471.7194579,-149.4140625,185.546875,202.63671875,201.66015625,0.0
1732199471.7233634,-159.66796875,183.59375,210.44921875,132.8125,0.0
1732199471.727269,-136.23046875,175.78125,282.2265625,54.19921875,0.0
1732199471.731186,-91.30859375,138.18359375,211.42578125,84.47265625,0.0
1732199471.7350914,-57.6171875,145.5078125,185.546875,211.9140625,0.0
1732199471.738997,-43.45703125,165.52734375,253.41796875,212.890625,0.0
1732199471.7429025,-39.0625,149.4140625,190.91796875,129.8828125,0.0
1732199471.746808,-31.25,131.34765625,56.15234375,75.1953125,0.0
1732199471.7507136,-63.4765625,118.65234375,-47.36328125,48.33984375,0.0
1732199471.7546191,-112.3046875,136.71875,38.57421875,110.3515625,0.0
1732199471.7585247,-128.90625,172.8515625,267.578125,118.65234375,0.0
1732199471.7624302,-148.92578125,172.36328125,285.64453125,20.01953125,0.0
1732199471.7663357,-128.90625,158.203125,0.48828125,-54.19921875,0.0
1732199471.7702413,-92.28515625,230.95703125,129.8828125,-56.15234375,0.0
1732199471.7741468,-61.03515625,271.97265625,359.86328125,50.78125,0.0
1732199471.7780633,-78.61328125,245.1171875,249.51171875,105.95703125,0.0
1732199471.7819688,-143.06640625,252.44140625,197.265625,22.4609375,0.0
1732199471.7858744,-136.71875,287.109375,209.9609375,-76.171875,0.0
1732199471.78978,-117.67578125,279.296875,118.65234375,-65.4296875,0.0
1732199471.7936854,-89.84375,251.46484375,1.46484375,50.78125,0.0
1732199471.797591,-24.90234375,257.32421875,7.32421875,116.69921875,0.0
1732199471.8014965,-2.9296875,255.37109375,64.94140625,90.8203125,0.0
1732199471.805402,-5.37109375,259.765625,109.375,-10.7421875,0.0
1732199471.8093076,22.94921875,210.44921875,-131.8359375,-24.4140625,0.0
1732199471.813213,39.55078125,212.890625,-205.56640625,90.33203125,0.0
1732199471.8171186,37.109375,326.66015625,281.73828125,152.34375,0.0
1732199471.8210242,44.921875,305.6640625,272.94921875,121.58203125,0.0
1732199471.82494,-4.8828125,278.3203125,-20.01953125,-32.71484375,0.0
1732199471.8288455,-29.296875,298.828125,-91.30859375,-125.48828125,0.0
1732199471.832751,-53.22265625,310.05859375,-31.73828125,-22.94921875,0.0
1732199471.8366566,-69.3359375,317.3828125,-15.625,63.4765625,0.0
1732199471.840562,-64.94140625,309.5703125,-83.49609375,23.92578125,0.0
1732199471.8444676,-72.265625,289.55078125,-220.703125,-52.24609375,0.0
1732199471.8483732,-64.94140625,288.0859375,-295.41015625,-99.12109375,0.0
1732199471.8522787,-56.15234375,305.6640625,-277.34375,-50.29296875,0.0
1732199471.8561842,-50.78125,309.08203125,-264.16015625,59.08203125,0.0
1732199471.8600898,-98.6328125,361.328125,-14.6484375,63.4765625,0.0
1732199471.8639953,-126.953125,392.08984375,86.42578125,-9.765625,0.0
1732199471.8679008,-121.58203125,349.12109375,-164.55078125,-52.734375,0.0
1732199471.871816,-92.28515625,348.14453125,-197.265625,0.9765625,0.0
1732199471.8757215,-102.05078125,389.6484375,94.7265625,103.02734375,0.0
1732199471.879627,-108.88671875,381.8359375,242.1875,90.33203125,0.0
1732199471.8835325,-34.1796875,339.35546875,0.9765625,5.37109375,0.0
1732199471.887438,-6.8359375,333.49609375,-189.94140625,-77.63671875,0.0
1732199471.8913436,-49.8046875,358.88671875,-174.8046875,-54.6875,0.0
1732199471.8952491,-77.63671875,408.69140625,-33.203125,50.29296875,0.0
1732199471.8991547,-53.22265625,393.06640625,-76.171875,124.0234375,0.0
1732199471.9030602,13.18359375,380.37109375,-164.55078125,77.63671875,0.0
1732199471.9069657,2.44140625,461.9140625,78.125,-105.46875,0.0
1732199471.9108713,-41.9921875,448.73046875,17.578125,-129.8828125,0.0
1732199471.9147768,11.23046875,449.70703125,-27.83203125,9.27734375,0.0
1732199471.9186914,39.0625,495.60546875,203.61328125,35.15625,0.0
1732199471.922597,22.94921875,485.3515625,285.15625,-33.69140625,0.0
1732199471.9265025,24.90234375,452.1484375,52.734375,-82.51953125,0.0
1732199471.930408,67.87109375,451.66015625,-103.02734375,-52.24609375,0.0
1732199471.9343135,77.1484375,475.5859375,24.4140625,59.5703125,0.0
1732199471.938219,66.89453125,456.54296875,41.9921875,111.81640625,0.0
1732199471.9421246,65.4296875,436.5234375,-47.36328125,28.80859375,0.0
1732199471.9460301,63.96484375,392.08984375,-226.5625,-57.6171875,0.0
1732199471.9499357,63.96484375,437.01171875,-90.33203125,-40.0390625,0.0
1732199471.9538412,81.0546875,497.0703125,181.640625,66.89453125,0.0
1732199471.9577467,60.546875,452.1484375,164.55078125,104.98046875,0.0
1732199471.9616523,14.16015625,437.01171875,63.96484375,38.57421875,0.0
1732199471.9655662,15.13671875,457.03125,37.59765625,-67.87109375,0.0
1732199471.9694717,18.06640625,437.01171875,-69.82421875,-101.5625,0.0
1732199471.9733772,19.04296875,421.38671875,-137.6953125,34.1796875,0.0
1732199471.9772828,4.8828125,462.40234375,87.890625,149.4140625,0.0
1732199471.9811885,-19.53125,464.84375,237.79296875,83.984375,0.0
1732199471.985094,-22.94921875,412.59765625,21.484375,-25.390625,0.0
1732199471.9889996,-48.33984375,363.76953125,-257.32421875,-43.9453125,0.0
1732199471.9929051,-70.80078125,381.8359375,-173.33984375,14.6484375,0.0
1732199471.9968107,-60.546875,479.4921875,288.0859375,61.03515625,0.0
1732199472.0007162,-99.609375,459.9609375,323.2421875,28.80859375,0.0
1732199472.0046217,-134.765625,407.2265625,91.30859375,-74.70703125,0.0
1732199472.0085273,-118.65234375,404.78515625,20.99609375,-134.27734375,0.0
1732199472.0124407,-84.9609375,429.6875,144.53125,-59.5703125,0.0
1732199472.0163462,-43.45703125,419.921875,272.4609375,63.4765625,0.0
1732199472.0202518,-84.47265625,401.3671875,264.6484375,41.9921875,0.0
1732199472.0241573,-126.953125,406.25,237.79296875,-82.51953125,0.0
1732199472.0280628,-100.5859375,397.94921875,69.82421875,-138.18359375,0.0
1732199472.0319684,-64.453125,410.64453125,-8.7890625,-92.28515625,0.0
1732199472.035874,-80.078125,384.765625,-103.515625,30.2734375,0.0
1732199472.0397794,-145.99609375,423.33984375,55.6640625,53.22265625,0.0
1732199472.043685,-147.94921875,486.328125,350.09765625,-64.453125,0.0
1732199472.0475907,-137.20703125,428.7109375,106.4453125,-140.13671875,0.0
1732199472.0514963,-119.62890625,405.2734375,-57.12890625,-80.56640625,0.0
1732199472.0554018,-94.23828125,478.02734375,244.140625,45.8984375,0.0
1732199472.0593145,-109.375,483.3984375,383.30078125,66.40625,0.0
1732199472.06322,-101.5625,417.48046875,165.52734375,-42.96875,0.0
1732199472.0671256,-18.5546875,414.55078125,27.83203125,-127.9296875,0.0
1732199472.071031,23.92578125,460.44921875,197.265625,-69.82421875,0.0
1732199472.0749366,-18.06640625,468.75,360.3515625,49.31640625,0.0
1732199472.0788422,-37.109375,384.27734375,189.453125,55.17578125,0.0
1732199472.0827477,-25.390625,366.2109375,40.52734375,-38.57421875,0.0
1732199472.0866532,-15.625,474.609375,284.66796875,-145.99609375,0.0
1732199472.0905588,34.66796875,510.7421875,363.28125,-131.34765625,0.0
1732199472.0944643,53.7109375,493.1640625,338.37890625,14.16015625,0.0
1732199472.0983698,-31.25,531.73828125,386.71875,45.8984375,0.0
1732199472.1022754,-88.37890625,558.10546875,392.578125,-79.58984375,0.0
1732199472.1061926,-73.2421875,515.13671875,336.42578125,-136.23046875,0.0
1732199472.1100981,-89.35546875,507.8125,326.171875,-150.390625,0.0
1732199472.1140037,-55.6640625,547.36328125,363.28125,-65.4296875,0.0
1732199472.1179092,-16.11328125,576.66015625,389.16015625,42.96875,0.0
1732199472.1218147,-53.22265625,590.8203125,357.421875,-32.71484375,0.0
1732199472.1257203,-113.28125,582.03125,220.703125,-176.26953125,0.0
1732199472.1296258,-122.0703125,616.2109375,219.7265625,-164.55078125,0.0
1732199472.1335313,-88.37890625,671.875,341.30859375,63.96484375,0.0
1732199472.1374369,-47.8515625,688.96484375,322.265625,128.90625,0.0
1732199472.1413424,-83.0078125,655.76171875,136.23046875,17.578125,0.0
1732199472.145248,-84.47265625,709.9609375,207.03125,-9.27734375,0.0
1732199472.1491535,-19.53125,753.90625,284.66796875,16.11328125,0.0
1732199472.1530697,8.30078125,741.69921875,166.015625,117.67578125,0.0
1732199472.1569753,2.9296875,786.1328125,180.17578125,242.1875,0.0
1732199472.1608808,19.04296875,852.05078125,295.41015625,237.3046875,0.0
1732199472.1647863,53.7109375,861.81640625,174.31640625,118.1640625,0.0
1732199472.1686919,87.40234375,824.70703125,-157.71484375,48.33984375,0.0
1732199472.1725974,87.890625,825.68359375,-308.10546875,135.7421875,0.0
1732199472.176503,58.10546875,924.8046875,-52.734375,228.515625,0.0
1732199472.1804085,24.90234375,973.6328125,131.8359375,204.58984375,0.0
1732199472.184314,13.18359375,954.1015625,-232.421875,129.8828125,0.0
1732199472.1882195,48.33984375,946.77734375,-372.55859375,77.1484375,0.0
1732199472.192125,70.80078125,968.26171875,-69.3359375,112.3046875,0.0
1732199472.1960306,-1.953125,968.26171875,-127.9296875,211.9140625,0.0
1732199472.1999462,-51.26953125,966.796875,-155.76171875,255.37109375,0.0
1732199472.2038517,-65.91796875,967.7734375,-94.23828125,165.52734375,0.0
1732199472.2077572,-84.9609375,967.7734375,-180.6640625,66.40625,0.0
1732199472.2116628,-139.16015625,967.7734375,-327.63671875,111.81640625,0.0
1732199472.2155683,-141.6015625,967.7734375,-324.70703125,215.33203125,0.0
1732199472.2194738,-118.1640625,967.28515625,-247.55859375,274.4140625,0.0
1732199472.2233794,-112.79296875,967.28515625,-253.90625,241.2109375,0.0
1732199472.227285,-110.83984375,967.28515625,-351.07421875,133.30078125,0.0
1732199472.2311904,-92.7734375,967.7734375,-393.5546875,85.44921875,0.0
1732199472.235096,-85.44921875,967.7734375,-142.08984375,185.05859375,0.0
1732199472.2390015,-71.2890625,967.7734375,80.078125,272.4609375,0.0
1732199472.242907,-63.96484375,967.28515625,-109.375,217.7734375,0.0
1732199472.246822,-149.4140625,967.28515625,-297.36328125,115.234375,0.0
1732199472.2507277,-144.04296875,967.7734375,-258.7890625,16.11328125,0.0
1732199472.2546332,-159.66796875,967.7734375,-311.03515625,55.17578125,0.0
1732199472.2585387,-203.61328125,967.7734375,-294.43359375,193.84765625,0.0
1732199472.2624443,-274.90234375,967.28515625,-194.3359375,152.83203125,0.0
1732199472.2663498,-311.03515625,967.7734375,-270.5078125,57.6171875,0.0
1732199472.2702553,-310.546875,967.7734375,-285.15625,44.921875,0.0
1732199472.2741609,-300.29296875,967.7734375,-348.6328125,107.421875,0.0
1732199472.2780664,-225.5859375,967.7734375,-248.046875,184.5703125,0.0
1732199472.281972,-178.22265625,967.7734375,106.4453125,113.76953125,0.0
1732199472.2858775,-203.125,967.28515625,17.08984375,-4.8828125,0.0
1732199472.289783,-221.19140625,967.7734375,-189.453125,-105.46875,0.0
1732199472.2936976,-228.515625,967.7734375,-133.30078125,-102.5390625,0.0
1732199472.2976031,-254.8828125,967.7734375,111.328125,11.71875,0.0
1732199472.3015087,-250.9765625,967.7734375,209.9609375,-10.7421875,0.0
1732199472.3054142,-239.2578125,967.28515625,72.265625,-117.1875,0.0
1732199472.3093197,-261.23046875,967.28515625,-65.91796875,-145.01953125,0.0
1732199472.3132253,-311.03515625,967.28515625,-92.7734375,-105.95703125,0.0
1732199472.3171308,-405.76171875,967.7734375,14.6484375,-14.6484375,0.0
1732199472.3210363,-465.33203125,967.28515625,-99.609375,21.97265625,0.0
1732199472.3249419,-421.38671875,967.28515625,-58.10546875,-84.9609375,0.0
1732199472.3288474,-387.20703125,967.28515625,118.65234375,-168.9453125,0.0
1732199472.332753,-371.58203125,967.7734375,-40.0390625,-130.37109375,0.0
1732199472.3366587,-358.3984375,967.7734375,3.41796875,-24.90234375,0.0
1732199472.3405728,0.0,967.7734375,271.97265625,-9.27734375,0.0
1732199472.3444786,0.0,967.28515625,252.44140625,-91.30859375,0.0
1732199472.3483841,0.0,967.7734375,-46.875,-160.15625,0.0
1732199472.3522897,0.0,967.7734375,-146.97265625,-135.25390625,0.0
1732199472.3561952,0.0,967.7734375,38.0859375,-28.3203125,0.0
1732199472.3601007,0.0,967.7734375,81.0546875,17.578125,0.0
1732199472.3640063,0.0,967.7734375,-157.71484375,-96.6796875,0.0
1732199472.3679118,0.0,967.7734375,-291.9921875,-208.984375,0.0
1732199472.3718174,0.0,967.28515625,-3.41796875,-203.125,0.0
1732199472.375723,0.0,967.7734375,150.87890625,-70.3125,0.0
1732199472.3796284,0.0,967.7734375,140.625,6.8359375,0.0
1732199472.383534,0.0,967.7734375,219.23828125,-74.21875,0.0
1732199472.3874474,197.75390625,967.7734375,229.98046875,-137.20703125,0.0
1732199472.391353,262.20703125,967.28515625,53.22265625,-132.32421875,0.0
1732199472.3952584,284.66796875,967.7734375,15.13671875,3.90625,0.0
1732199472.399164,296.875,966.30859375,234.86328125,88.37890625,0.0
1732199472.4030695,312.01171875,967.7734375,247.55859375,-6.34765625,0.0
1732199472.406975,292.96875,973.14453125,-45.41015625,-91.30859375,0.0
1732199472.4108806,282.71484375,915.0390625,-320.80078125,-84.9609375,0.0
1732199472.414786,280.76171875,925.29296875,-163.57421875,-4.8828125,0.0
1732199472.4186916,312.5,981.93359375,276.3671875,87.890625,0.0
1732199472.4225972,311.03515625,948.73046875,255.37109375,87.40234375,0.0
1732199472.4265027,293.9453125,893.5546875,26.3671875,-31.73828125,0.0
1732199472.4304082,300.29296875,876.46484375,40.52734375,-88.8671875,0.0
1732199472.434321,291.9921875,854.98046875,99.12109375,-7.8125,0.0
1732199472.4382265,295.41015625,788.0859375,84.47265625,106.93359375,0.0
1732199472.442132,309.08203125,750.48828125,70.3125,109.375,0.0
1732199472.4460375,293.9453125,746.09375,83.984375,21.484375,0.0
1732199472.449943,276.85546875,680.17578125,-15.13671875,-34.1796875,0.0
1732199472.4538486,290.0390625,518.5546875,-276.85546875,37.59765625,0.0
1732199472.4577541,298.33984375,527.83203125,-214.84375,159.1796875,0.0
1732199472.4616597,289.55078125,691.89453125,106.4453125,157.2265625,0.0
1732199472.4655652,283.203125,633.7890625,-17.08984375,68.84765625,0.0
1732199472.4694707,289.55078125,515.625,-238.28125,3.90625,0.0
1732199472.4733763,250.9765625,520.01953125,-212.890625,37.109375,0.0
1732199472.4772818,203.125,585.9375,-11.23046875,133.30078125,0.0
1732199472.4811988,195.3125,528.3203125,-25.390625,184.5703125,0.0
1732199472.4851046,212.890625,473.14453125,-129.8828125,105.46875,0.0
1732199472.48901,195.3125,474.609375,-134.765625,36.62109375,0.0
1732199472.4929156,160.64453125,457.51953125,-132.32421875,85.44921875,0.0
1732199472.4968212,140.625,435.546875,-75.1953125,223.14453125,0.0
1732199472.5007267,124.51171875,379.39453125,-99.609375,280.76171875,0.0
1732199472.5046322,116.69921875,365.234375,-129.8828125,177.24609375,0.0
1732199472.5085378,123.046875,374.0234375,-115.72265625,80.078125,0.0
1732199472.5124433,158.203125,358.3984375,-136.23046875,91.30859375,0.0
1732199472.5163488,125.0,326.66015625,-168.9453125,241.2109375,0.0
1732199472.5202544,98.6328125,419.921875,59.5703125,301.26953125,0.0
1732199472.52416,142.08984375,431.640625,127.9296875,198.73046875,0.0
1732199472.5280764,151.85546875,303.22265625,-134.765625,110.83984375,0.0
1732199472.531982,145.01953125,277.34375,-223.6328125,99.12109375,0.0
1732199472.5358875,147.94921875,327.1484375,-71.2890625,211.9140625,0.0
1732199472.539793,181.15234375,302.24609375,-57.12890625,308.10546875,0.0
1732199472.5436985,169.43359375,260.25390625,-153.3203125,254.8828125,0.0
1732199472.547604,167.96875,216.796875,-245.60546875,163.0859375,0.0
1732199472.5515096,185.05859375,241.69921875,-224.12109375,112.79296875,0.0
1732199472.5554152,157.71484375,320.3125,-28.3203125,179.19921875,0.0
1732199472.5593207,167.96875,222.16796875,-125.0,266.6015625,0.0
1732199472.5632262,167.96875,187.01171875,-200.1953125,250.48828125,0.0
1732199472.5671318,154.296875,326.171875,72.75390625,181.640625,0.0
1732199472.5710373,154.78515625,251.953125,-18.06640625,125.0,0.0
1732199472.5749528,132.32421875,201.66015625,-101.07421875,166.50390625,0.0
1732199472.5788584,147.94921875,266.11328125,72.265625,230.95703125,0.0
1732199472.582764,129.8828125,277.34375,134.27734375,185.05859375,0.0
1732199472.5866694,87.40234375,219.23828125,-11.71875,95.703125,0.0
1732199472.590575,88.37890625,149.4140625,-183.10546875,77.63671875,0.0
1732199472.5944805,80.078125,145.5078125,-178.7109375,174.8046875,0.0
1732199472.598386,85.44921875,203.61328125,1.953125,253.90625,0.0
1732199472.6022916,98.6328125,211.42578125,46.875,234.86328125,0.0
1732199472.606197,70.80078125,129.8828125,-156.25,154.296875,0.0
1732199472.6101027,78.61328125,193.359375,-93.75,101.07421875,0.0
1732199472.6140082,77.63671875,281.73828125,109.86328125,122.55859375,0.0
1732199472.6179137,67.87109375,223.14453125,74.21875,231.93359375,0.0
1732199472.621829,58.59375,202.1484375,74.70703125,250.9765625,0.0
1732199472.6257346,31.25,231.93359375,94.7265625,123.53515625,0.0
1732199472.62964,15.625,186.03515625,-42.96875,68.84765625,0.0
1732199472.6335456,2.9296875,114.2578125,-210.44921875,131.8359375,0.0
1732199472.6374512,26.85546875,134.765625,-124.0234375,238.28125,0.0
1732199472.6413567,48.33984375,152.34375,-18.5546875,236.81640625,0.0
1732199472.6452622,33.69140625,188.4765625,-6.8359375,99.12109375,0.0
1732199472.6491678,50.78125,88.37890625,-240.72265625,24.90234375,0.0
1732199472.6530733,81.0546875,10.7421875,-385.7421875,102.05078125,0.0
1732199472.6569788,43.9453125,243.65234375,46.38671875,190.91796875,0.0
1732199472.6608846,12.20703125,274.4140625,150.87890625,142.08984375,0.0
1732199472.6647902,43.45703125,169.43359375,-47.36328125,63.96484375,0.0
1732199472.6687047,37.109375,145.99609375,-104.98046875,3.90625,0.0
1732199472.6726103,35.15625,149.4140625,-68.359375,10.25390625,0.0
1732199472.6765158,49.8046875,135.25390625,-16.6015625,161.1328125,0.0
1732199472.6804214,56.640625,133.7890625,32.71484375,232.421875,0.0
1732199472.684327,78.125,135.25390625,-3.90625,105.46875,0.0
1732199472.6882324,105.46875,78.125,-187.98828125,-8.7890625,0.0
1732199472.692138,105.95703125,70.3125,-289.55078125,3.90625,0.0
1732199472.6960435,102.5390625,40.52734375,-331.54296875,143.5546875,0.0
1732199472.699949,101.07421875,161.1328125,-58.59375,261.71875,0.0
1732199472.7038546,118.65234375,262.20703125,146.484375,157.71484375,0.0
1732199472.70776,116.2109375,140.13671875,-109.86328125,20.99609375,0.0
1732199472.7116656,93.26171875,77.1484375,-282.2265625,-1.953125,0.0
1732199472.7155795,119.140625,157.71484375,-120.60546875,85.9375,0.0
1732199472.719485,169.921875,205.56640625,58.10546875,199.21875,0.0
1732199472.7233906,156.73828125,131.8359375,-67.87109375,170.41015625,0.0
1732199472.727296,142.578125,111.81640625,-176.26953125,91.796875,0.0
1732199472.7312016,141.6015625,131.34765625,-165.0390625,53.22265625,0.0
1732199472.7351072,127.44140625,102.5390625,-183.10546875,162.59765625,0.0
1732199472.7390127,161.62109375,65.4296875,-215.8203125,292.96875,0.0
1732199472.7429183,165.0390625,92.28515625,-195.80078125,227.5390625,0.0
1732199472.7468238,171.875,193.84765625,-20.5078125,76.66015625,0.0
1732199472.7507293,166.9921875,146.97265625,-109.375,14.6484375,0.0
1732199472.7546349,157.2265625,138.671875,-164.55078125,92.7734375,0.0
1732199472.7585404,138.18359375,204.58984375,-4.8828125,198.2421875,0.0
1732199472.762454,129.8828125,227.05078125,97.65625,188.96484375,0.0
1732199472.7663596,158.203125,132.8125,-79.58984375,115.234375,0.0
1732199472.770265,106.93359375,79.1015625,-208.0078125,25.390625,0.0
1732199472.7741706,118.65234375,147.4609375,-94.7265625,61.5234375,0.0
1732199472.7780762,171.875,183.10546875,44.921875,202.63671875,0.0
1732199472.7819817,165.0390625,138.18359375,-10.7421875,167.96875,0.0
1732199472.7858872,140.13671875,27.83203125,-268.06640625,59.08203125,0.0
1732199472.7897928,112.79296875,86.9140625,-234.375,-0.9765625,0.0
1732199472.7936983,108.3984375,208.984375,-2.9296875,51.26953125,0.0
1732199472.7976038,99.609375,152.83203125,10.25390625,184.08203125,0.0
1732199472.8015094,132.32421875,126.46484375,8.7890625,204.58984375,0.0
1732199472.805415,125.0,149.4140625,45.41015625,93.75,0.0
1732199472.8093276,114.74609375,127.9296875,-36.62109375,6.8359375,0.0
1732199472.8132331,144.04296875,58.59375,-214.84375,81.54296875,0.0
1732199472.8171387,141.6015625,111.328125,-122.55859375,188.4765625,0.0
1732199472.8210442,141.6015625,202.63671875,84.47265625,203.125,0.0
1732199472.8249497,152.83203125,156.73828125,-18.06640625,150.390625,0.0
1732199472.8288553,150.390625,48.33984375,-302.24609375,58.59375,0.0
1732199472.8327608,113.76953125,50.78125,-310.546875,55.6640625,0.0
1732199472.8366663,96.6796875,221.6796875,55.17578125,172.36328125,0.0
1732199472.840572,111.81640625,230.46875,138.671875,229.4921875,0.0
1732199472.8444777,96.19140625,128.41796875,-64.94140625,127.44140625,0.0
1732199472.8483832,70.3125,130.859375,-133.7890625,33.203125,0.0
1732199472.8522887,64.453125,183.59375,-70.3125,32.2265625,0.0
1732199472.8562055,47.8515625,166.9921875,-62.5,124.0234375,0.0
1732199472.860111,31.25,154.78515625,-17.08984375,206.0546875,0.0
1732199472.8640165,15.625,162.59765625,10.25390625,191.40625,0.0
1732199472.8679223,4.8828125,138.671875,-38.0859375,93.26171875,0.0
1732199472.8718278,-0.9765625,90.33203125,-145.99609375,41.9921875,0.0
1732199472.8757334,10.7421875,56.15234375,-178.22265625,184.5703125,0.0
1732199472.879639,18.5546875,103.02734375,-34.1796875,284.1796875,0.0
1732199472.8835444,-7.32421875,121.09375,11.71875,167.96875,0.0
1732199472.88745,-39.55078125,65.4296875,-109.375,35.64453125,0.0
1732199472.8913555,-5.37109375,39.55078125,-231.4453125,22.4609375,0.0
1732199472.895261,-10.7421875,137.20703125,-58.59375,137.6953125,0.0
1732199472.8991666,-8.7890625,207.03125,165.0390625,208.984375,0.0
1732199472.9030828,77.1484375,132.8125,33.69140625,134.27734375,0.0
1732199472.9069884,89.84375,89.84375,-99.12109375,64.94140625,0.0
1732199472.910894,47.36328125,120.1171875,-82.51953125,14.6484375,0.0
1732199472.9147995,16.11328125,114.2578125,-77.63671875,44.43359375,0.0
1732199472.918705,21.97265625,91.30859375,-55.17578125,160.15625,0.0
1732199472.9226105,48.828125,71.77734375,-96.6796875,189.453125,0.0
1732199472.926516,28.3203125,124.0234375,-71.2890625,99.609375,0.0
1732199472.9304216,32.71484375,161.1328125,-31.73828125,17.578125,0.0
1732199472.9343271,32.2265625,22.94921875,-262.20703125,94.7265625,0.0
1732199472.9382327,44.921875,16.11328125,-260.25390625,229.4921875,0.0
1732199472.9421382,58.59375,216.30859375,145.01953125,208.984375,0.0
1732199472.9460437,47.36328125,189.453125,103.515625,88.8671875,0.0
1732199472.9499595,49.8046875,98.14453125,-124.51171875,8.7890625,0.0
1732199472.953865,48.33984375,116.69921875,-98.6328125,41.50390625,0.0
1732199472.9577706,36.1328125,152.83203125,55.17578125,185.546875,0.0
1732199472.9616761,10.25390625,126.953125,59.5703125,182.12890625,0.0
1732199472.9655817,-22.94921875,96.19140625,-45.8984375,92.28515625,0.0
1732199472.9694872,-18.5546875,61.03515625,-174.8046875,36.62109375,0.0
1732199472.9733927,2.44140625,67.87109375,-199.21875,44.43359375,0.0
1732199472.9772983,-7.8125,105.46875,-89.35546875,167.48046875,0.0
1732199472.9812038,-11.71875,50.78125,-164.55078125,247.0703125,0.0
1732199472.9851093,-10.7421875,112.79296875,-69.82421875,187.5,0.0
1732199472.9890149,-4.39453125,172.36328125,50.78125,45.41015625,0.0
1732199472.9929204,13.671875,60.546875,-156.73828125,42.48046875,0.0
1732199472.9968355,4.39453125,61.03515625,-124.0234375,181.640625,0.0
1732199473.000741,-11.71875,162.109375,140.13671875,245.60546875,0.0
1732199473.0046465,-4.39453125,152.83203125,142.08984375,199.70703125,0.0
1732199473.008552,14.16015625,51.26953125,-83.984375,117.1875,0.0
1732199473.0124576,26.85546875,24.4140625,-157.71484375,103.515625,0.0
1732199473.0163631,10.25390625,60.05859375,-62.5,216.796875,0.0
1732199473.0202687,-0.9765625,136.71875,131.34765625,236.81640625,0.0
1732199473.0241742,-16.11328125,51.7578125,-2.9296875,143.06640625,0.0
1732199473.02808,-17.578125,-25.390625,-208.49609375,56.640625,0.0
1732199473.0319855,-12.20703125,139.6484375,56.15234375,74.21875,0.0
1732199473.035891,-7.32421875,149.4140625,129.39453125,152.34375,0.0
1732199473.0397966,10.25390625,121.58203125,123.53515625,235.83984375,0.0
1732199473.043711,21.97265625,142.578125,212.890625,210.44921875,0.0
1732199473.0476165,6.8359375,139.6484375,236.81640625,125.48828125,0.0
1732199473.051522,-10.25390625,52.24609375,44.43359375,134.27734375,0.0
1732199473.0554276,-12.6953125,62.5,42.96875,188.96484375,0.0
1732199473.059333,21.484375,142.578125,304.19921875,223.6328125,0.0
1732199473.0632386,40.52734375,95.21484375,289.55078125,166.015625,0.0
1732199473.0671442,46.38671875,47.8515625,135.7421875,79.1015625,0.0
1732199473.0710497,73.73046875,-37.109375,-110.3515625,47.8515625,0.0
1732199473.0749552,46.38671875,64.94140625,101.07421875,106.4453125,0.0
1732199473.0788608,25.390625,209.47265625,461.42578125,188.4765625,0.0
1732199473.0827663,44.921875,122.0703125,343.26171875,176.7578125,0.0
1732199473.0866718,16.11328125,70.80078125,208.0078125,90.33203125,0.0
1732199473.0905862,9.765625,108.88671875,177.734375,36.1328125,0.0
1732199473.0944917,47.36328125,126.953125,199.70703125,96.19140625,0.0
1732199473.0983973,73.73046875,100.5859375,200.68359375,226.07421875,0.0
1732199473.1023028,69.3359375,113.76953125,254.39453125,199.70703125,0.0
1732199473.1062083,51.26953125,132.32421875,307.12890625,64.453125,0.0
1732199473.1101139,74.70703125,80.56640625,118.1640625,15.13671875,0.0
1732199473.1140194,55.6640625,-19.53125,-114.2578125,92.28515625,0.0
1732199473.117925,66.89453125,22.4609375,-6.34765625,221.19140625,0.0
1732199473.1218305,105.95703125,213.37890625,367.1875,168.9453125,0.0
1732199473.125736,62.01171875,179.6875,373.046875,87.890625,0.0
1732199473.1296415,65.4296875,93.26171875,172.8515625,31.73828125,0.0
1732199473.133547,95.703125,121.09375,134.765625,15.625,0.0
1732199473.1374605,132.32421875,188.96484375,340.33203125,145.01953125,0.0
1732199473.141366,173.33984375,179.19921875,379.39453125,166.9921875,0.0
1732199473.1452715,198.2421875,140.13671875,263.671875,66.89453125,0.0
1732199473.149177,216.30859375,152.34375,248.046875,2.44140625,0.0
1732199473.1530826,205.078125,144.04296875,173.828125,-1.46484375,0.0
1732199473.1569881,214.35546875,132.8125,167.96875,83.49609375,0.0
1732199473.1608937,217.28515625,78.125,94.23828125,140.625,0.0
1732199473.1647992,173.828125,118.65234375,123.046875,74.70703125,0.0
1732199473.1687047,135.25390625,209.9609375,336.42578125,-56.640625,0.0
1732199473.1726103,114.2578125,153.3203125,149.4140625,-71.77734375,0.0
1732199473.1765158,74.21875,197.75390625,185.05859375,49.31640625,0.0
1732199473.1804214,29.78515625,276.3671875,389.16015625,115.234375,0.0
1732199473.1843343,4.8828125,250.9765625,336.9140625,60.546875,0.0
1732199473.1882398,-17.578125,169.921875,55.6640625,20.01953125,0.0
1732199473.1921453,-76.66015625,151.85546875,-124.51171875,34.1796875,0.0
1732199473.196051,-139.16015625,234.375,35.15625,152.83203125,0.0
1732199473.1999564,-156.73828125,240.72265625,128.41796875,239.74609375,0.0
1732199473.203862,-185.546875,108.88671875,-110.83984375,188.4765625,0.0
1732199473.2077675,-226.07421875,83.0078125,-207.51953125,125.0,0.0
1732199473.211673,-243.65234375,182.12890625,-50.78125,92.7734375,0.0
1732199473.2155786,-241.2109375,187.98828125,-0.9765625,190.91796875,0.0
1732199473.219484,-212.890625,98.14453125,-106.93359375,355.46875,0.0
1732199473.2233896,-197.265625,76.66015625,-170.41015625,342.28515625,0.0
1732199473.2272952,-194.82421875,166.9921875,-20.5078125,205.078125,0.0
1732199473.2312121,-200.68359375,110.3515625,-108.88671875,141.6015625,0.0
1732199473.2351177,-221.6796875,62.5,-170.41015625,237.79296875,0.0
1732199473.2390232,-211.42578125,115.234375,-7.8125,371.09375,0.0
1732199473.2429287,-200.1953125,126.46484375,52.24609375,323.73046875,0.0
1732199473.2468343,-258.7890625,67.87109375,-92.28515625,184.5703125,0.0
1732199473.2507398,-313.96484375,-16.6015625,-281.25,126.46484375,0.0
1732199473.2546453,-345.703125,-17.578125,-282.71484375,181.15234375,0.0
1732199473.258551,-375.0,68.359375,-68.84765625,272.94921875,0.0
1732199473.2624564,-372.0703125,79.58984375,48.828125,240.234375,0.0
1732199473.2663622,-362.79296875,-15.13671875,-144.04296875,127.9296875,0.0
1732199473.2702677,-333.49609375,21.484375,-117.67578125,44.921875,0.0
1732199473.2741733,-261.71875,67.3828125,0.9765625,54.19921875,0.0
1732199473.2780895,-218.75,19.04296875,-41.015625,178.7109375,0.0
1732199473.281995,-195.80078125,8.7890625,-45.8984375,200.68359375,0.0
1732199473.2859006,-146.97265625,56.15234375,0.48828125,104.98046875,0.0
1732199473.2898061,-128.90625,26.3671875,-88.8671875,22.94921875,0.0
1732199473.2937117,-92.28515625,-52.734375,-247.55859375,63.4765625,0.0
1732199473.2976172,-30.2734375,-59.08203125,-254.39453125,156.25,0.0
1732199473.3015227,-58.10546875,30.76171875,-88.8671875,135.7421875,0.0
1732199473.3054283,-69.82421875,64.94140625,-83.0078125,49.31640625,0.0
1732199473.3093338,-54.19921875,-101.5625,-373.046875,-12.20703125,0.0
1732199473.3132393,-63.4765625,-149.90234375,-429.19921875,53.22265625,0.0
1732199473.3171449,-87.40234375,58.59375,-100.09765625,183.59375,0.0
1732199473.3210504,-120.1171875,68.84765625,-56.15234375,215.8203125,0.0
1732199473.3249662,-142.578125,-8.30078125,-205.078125,147.94921875,0.0
1732199473.3288717,-147.4609375,-16.6015625,-244.140625,35.15625,0.0
1732199473.3327773,-171.38671875,-14.6484375,-237.3046875,37.59765625,0.0
1732199473.3366828,-230.46875,-40.52734375,-225.09765625,182.6171875,0.0
1732199473.3405886,-205.56640625,-24.4140625,-111.81640625,229.98046875,0.0
1732199473.344494,-171.38671875,-24.4140625,-88.37890625,163.0859375,0.0
1732199473.3483996,-216.30859375,-62.98828125,-162.109375,75.1953125,0.0
1732199473.3523052,-184.5703125,-72.265625,-179.6875,55.6640625,0.0
1732199473.3562107,-152.83203125,-108.88671875,-207.51953125,171.38671875,0.0
1732199473.3601162,-179.19921875,6.34765625,134.765625,240.72265625,0.0
1732199473.3640218,-137.20703125,82.03125,416.9921875,172.8515625,0.0
1732199473.3679273,-119.140625,-37.59765625,170.8984375,56.640625,0.0
1732199473.3718424,-90.33203125,-83.984375,-11.71875,37.109375,0.0
1732199473.375748,-41.9921875,-7.32421875,160.64453125,137.6953125,0.0
1732199473.3796535,-42.48046875,16.6015625,332.51953125,243.65234375,0.0
1732199473.383559,-54.19921875,-93.26171875,128.41796875,184.08203125,0.0
1732199473.3874645,-90.8203125,-115.72265625,-32.71484375,45.41015625,0.0
1732199473.39137,-149.90234375,-67.87109375,-0.48828125,38.0859375,0.0
1732199473.3952756,-186.5234375,-46.38671875,28.3203125,125.48828125,0.0
1732199473.3991811,-190.4296875,-88.8671875,0.0,203.125,0.0
1732199473.4030867,-215.33203125,-82.03125,13.18359375,192.3828125,0.0
1732199473.4069922,-223.6328125,49.31640625,293.45703125,129.39453125,0.0
1732199473.4108977,-279.296875,-12.20703125,214.35546875,59.08203125,0.0
1732199473.4148033,-321.77734375,-61.03515625,53.7109375,88.37890625,0.0
1732199473.4187224,-345.703125,12.20703125,232.421875,176.7578125,0.0
1732199473.422628,-406.25,49.31640625,375.0,175.78125,0.0
1732199473.4265335,-410.15625,-3.41796875,159.66796875,104.00390625,0.0
1732199473.430439,-402.83203125,-46.38671875,-72.75390625,54.19921875,0.0
1732199473.4343445,-393.06640625,-16.11328125,-25.87890625,82.03125,0.0
1732199473.43825,-335.44921875,2.9296875,72.75390625,179.6875,0.0
1732199473.4421556,-281.25,10.7421875,87.890625,224.12109375,0.0
1732199473.4460611,-259.27734375,-62.01171875,-113.28125,120.1171875,0.0
1732199473.4499667,-239.74609375,-25.87890625,-151.3671875,4.39453125,0.0
1732199473.4538722,-221.6796875,87.890625,17.578125,57.12890625,0.0
1732199473.4577777,-144.53125,101.07421875,69.3359375,208.984375,0.0
1732199473.4616833,-45.41015625,109.375,77.63671875,238.76953125,0.0
1732199473.4655972,-8.7890625,124.51171875,70.3125,150.390625,0.0
1732199473.4695027,1.953125,104.4921875,-40.0390625,55.17578125,0.0
1732199473.4734082,5.37109375,54.19921875,-190.91796875,54.6875,0.0
1732199473.4773138,92.28515625,110.83984375,-83.49609375,172.36328125,0.0
1732199473.4812193,184.5703125,201.66015625,113.28125,226.07421875,0.0
1732199473.485125,207.03125,133.7890625,-38.0859375,161.62109375,0.0
1732199473.4890306,274.4140625,58.59375,-295.41015625,94.7265625,0.0
1732199473.4929361,292.96875,113.28125,-297.36328125,111.328125,0.0
1732199473.4968417,325.68359375,230.46875,-43.45703125,168.9453125,0.0
1732199473.5007472,319.3359375,270.5078125,89.84375,193.84765625,0.0
1732199473.5046527,269.04296875,128.90625,-213.8671875,162.109375,0.0
1732199473.5085583,358.3984375,76.171875,-382.8125,102.5390625,0.0
1732199473.5124714,334.9609375,253.41796875,-126.953125,44.43359375,0.0
1732199473.516377,274.90234375,266.6015625,-75.68359375,135.25390625,0.0
1732199473.5202825,348.6328125,237.79296875,-59.08203125,221.19140625,0.0
1732199473.524188,310.546875,256.34765625,-41.50390625,177.24609375,0.0
1732199473.5280936,213.8671875,241.2109375,-130.859375,85.9375,0.0
1732199473.531999,221.6796875,190.4296875,-277.34375,50.78125,0.0
1732199473.5359046,251.46484375,127.44140625,-371.09375,160.15625,0.0
1732199473.5398102,314.94140625,252.44140625,-95.21484375,233.88671875,0.0
1732199473.5437157,374.51171875,387.20703125,191.89453125,195.80078125,0.0
1732199473.5476213,374.0234375,263.18359375,-24.90234375,144.04296875,0.0
1732199473.5515268,356.4453125,208.984375,-203.125,40.52734375,0.0
1732199473.5554326,363.28125,288.0859375,-79.1015625,64.453125,0.0
1732199473.5593498,401.85546875,356.93359375,86.42578125,190.91796875,0.0
1732199473.5632553,413.57421875,297.36328125,-14.16015625,178.7109375,0.0
1732199473.5671608,407.2265625,257.8125,-127.44140625,95.703125,0.0
1732199473.5710664,409.1796875,340.8203125,-90.8203125,37.59765625,0.0
1732199473.574972,401.85546875,369.62890625,-63.4765625,90.33203125,0.0
1732199473.5788774,425.29296875,273.92578125,-119.140625,210.44921875,0.0
1732199473.582783,387.6953125,283.69140625,-114.74609375,194.3359375,0.0
1732199473.5866885,328.125,433.59375,92.7734375,88.37890625,0.0
1732199473.590594,287.109375,357.421875,-28.3203125,20.99609375,0.0
1732199473.5944996,318.84765625,283.203125,-200.68359375,32.71484375,0.0
1732199473.5984051,382.32421875,390.625,10.25390625,131.8359375,0.0
1732199473.6023107,280.76171875,449.21875,187.5,159.1796875,0.0
1732199473.6062276,229.4921875,374.51171875,60.05859375,85.44921875,0.0
1732199473.6101332,260.7421875,310.546875,-130.859375,0.9765625,0.0
1732199473.6140387,227.5390625,348.6328125,-125.9765625,12.6953125,0.0
1732199473.6179442,216.30859375,410.64453125,61.03515625,104.4921875,0.0
1732199473.6218498,202.63671875,364.2578125,72.75390625,116.69921875,0.0
1732199473.6257553,194.3359375,300.29296875,-74.70703125,27.83203125,0.0
1732199473.6296608,178.7109375,296.875,-156.25,-6.34765625,0.0
1732199473.6335664,122.55859375,292.96875,-169.43359375,27.34375,0.0
1732199473.637472,138.18359375,341.796875,-0.9765625,68.84765625,0.0
1732199473.6413774,130.37109375,306.15234375,-52.24609375,107.421875,0.0
1732199473.645283,67.87109375,381.34765625,-3.90625,44.43359375,0.0
1732199473.6491885,53.7109375,433.10546875,71.77734375,-41.015625,0.0
1732199473.6531048,48.33984375,299.31640625,-166.50390625,-35.15625,0.0
1732199473.6570103,63.96484375,304.6875,-101.5625,66.89453125,0.0
1732199473.6609159,63.4765625,389.6484375,143.06640625,148.92578125,0.0
1732199473.6648214,-4.8828125,369.62890625,131.34765625,104.98046875,0.0
1732199473.668727,-48.33984375,270.99609375,-100.09765625,-3.90625,0.0
1732199473.6726325,-36.62109375,211.9140625,-263.671875,-29.78515625,0.0
1732199473.676538,-33.69140625,300.78125,-64.94140625,54.19921875,0.0
1732199473.6804435,-8.30078125,362.3046875,107.91015625,115.72265625,0.0
1732199473.684349,-2.44140625,233.3984375,-107.421875,94.23828125,0.0
1732199473.6882546,-20.99609375,197.265625,-212.890625,14.16015625,0.0
1732199473.6921601,-60.05859375,342.28515625,17.578125,-28.80859375,0.0
1732199473.6960657,-66.40625,347.16796875,73.73046875,93.75,0.0
1732199473.6999815,-39.55078125,349.609375,107.421875,193.359375,0.0
1732199473.703887,-64.94140625,387.6953125,139.16015625,117.1875,0.0
1732199473.7077925,-58.10546875,382.32421875,83.0078125,-11.71875,0.0
1732199473.711698,-64.453125,335.44921875,-71.77734375,-52.734375,0.0
1732199473.7156036,-78.125,326.66015625,-140.13671875,28.80859375,0.0
1732199473.7195091,-67.3828125,354.4921875,-21.97265625,134.27734375,0.0
1732199473.7234147,-22.94921875,352.5390625,51.7578125,102.05078125,0.0
1732199473.7273202,4.39453125,322.75390625,-41.015625,-14.6484375,0.0
1732199473.7312257,-6.34765625,240.234375,-256.8359375,-58.59375,0.0
1732199473.7351313,-41.015625,296.38671875,-155.76171875,-13.18359375,0.0
1732199473.7390368,-46.38671875,423.33984375,155.76171875,89.35546875,0.0
1732199473.7429423,-2.44140625,373.53515625,132.32421875,113.76953125,0.0
1732199473.7468574,-10.25390625,301.7578125,1.46484375,16.6015625,0.0
1732199473.750763,-41.9921875,297.36328125,-26.85546875,-133.7890625,0.0
1732199473.7546685,-108.3984375,277.83203125,-43.9453125,-141.6015625,0.0
1732199473.758574,-98.14453125,264.6484375,-13.18359375,13.671875,0.0
1732199473.7624798,-53.22265625,257.8125,9.765625,55.17578125,0.0
1732199473.7663853,-36.62109375,223.6328125,-44.921875,-8.7890625,0.0
1732199473.7702909,-24.4140625,224.12109375,-53.7109375,-84.9609375,0.0
1732199473.7741964,-100.09765625,147.94921875,-174.8046875,-59.08203125,0.0
1732199473.778102,-121.58203125,147.94921875,-162.109375,93.26171875,0.0
1732199473.7820075,-90.33203125,339.35546875,186.03515625,115.72265625,0.0
1732199473.785913,-91.30859375,297.36328125,108.88671875,47.36328125,0.0
1732199473.7898185,-64.94140625,189.94140625,-144.53125,-2.44140625,0.0
1732199473.793733,-74.21875,146.484375,-221.6796875,-20.99609375,0.0
1732199473.7976384,-120.1171875,199.70703125,-21.484375,62.98828125,0.0
1732199473.801544,-88.8671875,207.03125,93.26171875,122.0703125,0.0
1732199473.8054495,-78.61328125,132.8125,-20.99609375,37.109375,0.0
1732199473.809355,-105.95703125,104.98046875,-94.23828125,-37.59765625,0.0
1732199473.8132606,-80.56640625,69.3359375,-176.26953125,-11.23046875,0.0
1732199473.817166,-51.7578125,91.30859375,-88.8671875,93.75,0.0
1732199473.8210716,-39.55078125,53.7109375,-105.46875,173.828125,0.0
1732199473.8249772,-43.45703125,132.32421875,-32.2265625,85.44921875,0.0
1732199473.8288827,-17.578125,216.30859375,82.51953125,-25.87890625,0.0
1732199473.8327882,7.8125,120.60546875,-103.02734375,2.9296875,0.0
1732199473.836694,45.41015625,138.18359375,-97.16796875,102.5390625,0.0
1732199473.8406081,-18.5546875,228.515625,96.6796875,160.64453125,0.0
1732199473.8445137,-74.21875,221.19140625,95.703125,125.9765625,0.0
1732199473.8484192,-3.90625,145.01953125,-151.3671875,32.2265625,0.0
1732199473.8523247,-11.71875,168.9453125,-303.22265625,-26.85546875,0.0
1732199473.8562303,-22.94921875,294.921875,-157.71484375,63.4765625,0.0
1732199473.8601358,10.25390625,332.51953125,-108.88671875,166.9921875,0.0
1732199473.8640413,15.625,261.23046875,-321.2890625,119.62890625,0.0
1732199473.8679469,40.52734375,245.1171875,-378.90625,12.6953125,0.0
1732199473.8718524,-30.2734375,370.1171875,-202.63671875,-36.62109375,0.0
1732199473.875758,-104.98046875,375.9765625,-164.55078125,31.73828125,0.0
1732199473.8796635,-32.71484375,341.796875,-182.12890625,141.6015625,0.0
1732199473.883569,18.06640625,398.92578125,-120.60546875,109.375,0.0
1732199473.8874824,29.78515625,419.921875,-62.5,-27.83203125,0.0
1732199473.891388,4.39453125,338.8671875,-203.125,-104.00390625,0.0
1732199473.8952935,-4.8828125,330.56640625,-249.0234375,-35.64453125,0.0
1732199473.899199,-20.01953125,386.71875,-62.01171875,63.4765625,0.0
1732199473.9031045,3.90625,395.5078125,-2.9296875,52.24609375,0.0
1732199473.90701,101.5625,370.60546875,-177.734375,-58.10546875,0.0
1732199473.9109156,84.47265625,305.6640625,-363.28125,-133.7890625,0.0
1732199473.9148211,52.24609375,408.203125,-274.90234375,-62.5,0.0
1732199473.9187267,198.73046875,601.07421875,29.78515625,39.0625,0.0
1732199473.9226322,253.41796875,582.03125,37.59765625,42.48046875,0.0
1732199473.9265378,141.6015625,506.34765625,-141.6015625,-55.6640625,0.0
1732199473.9304433,161.1328125,527.83203125,-159.1796875,-126.46484375,0.0
1732199473.934356,166.9921875,556.640625,-130.37109375,-79.1015625,0.0
1732199473.9382615,83.0078125,513.671875,-110.83984375,41.015625,0.0
1732199473.942167,217.28515625,509.765625,-64.453125,72.265625,0.0
1732199473.9460726,288.0859375,587.40234375,-2.9296875,-35.64453125,0.0
1732199473.949978,188.4765625,575.1953125,-63.4765625,-123.046875,0.0
1732199473.9538836,166.015625,435.05859375,-272.94921875,-125.48828125,0.0
1732199473.9577892,154.78515625,518.5546875,-161.1328125,-19.53125,0.0
1732199473.9616947,163.57421875,723.14453125,166.015625,-7.32421875,0.0
1732199473.9656003,164.55078125,690.91796875,53.22265625,-149.4140625,0.0
1732199473.9695058,127.44140625,633.30078125,-205.078125,-187.98828125,0.0
1732199473.9734113,95.703125,719.7265625,-141.11328125,-142.08984375,0.0
1732199473.9773169,92.7734375,892.08984375,129.39453125,-51.7578125,0.0
1732199473.9812336,89.84375,897.4609375,150.87890625,24.4140625,0.0
1732199473.9851391,52.734375,849.12109375,46.875,-74.21875,0.0
1732199473.9890447,2.44140625,860.83984375,9.27734375,-161.62109375,0.0
1732199473.9929502,-23.4375,893.5546875,19.53125,-169.921875,0.0
1732199473.9968557,-64.94140625,920.8984375,74.21875,-42.48046875,0.0
1732199474.0007613,-100.5859375,906.73828125,114.2578125,69.3359375,0.0
1732199474.0046668,-125.0,901.85546875,122.0703125,24.4140625,0.0
1732199474.0085723,-147.4609375,910.64453125,145.5078125,-58.59375,0.0
1732199474.012478,-149.4140625,879.8828125,101.07421875,-62.01171875,0.0
1732199474.0163836,-222.16796875,831.0546875,54.6875,65.91796875,0.0
1732199474.0202892,-257.32421875,915.0390625,285.64453125,137.20703125,0.0
1732199474.0241947,-214.84375,938.96484375,443.359375,49.31640625,0.0
1732199474.028111,-225.5859375,832.51953125,283.203125,-83.0078125,0.0
1732199474.0320165,-205.56640625,781.73828125,106.4453125,-122.0703125,0.0
1732199474.035922,-221.6796875,838.37890625,252.44140625,-27.83203125,0.0
1732199474.0398276,-284.1796875,849.12109375,429.6875,63.4765625,0.0
1732199474.0437331,-232.91015625,758.30078125,349.12109375,51.26953125,0.0
1732199474.0476387,-195.80078125,662.59765625,167.96875,1.953125,0.0
1732199474.0515442,-218.75,698.73046875,156.25,-28.80859375,0.0
1732199474.0554497,-182.12890625,769.04296875,295.8984375,32.71484375,0.0
1732199474.0593553,-171.38671875,643.06640625,268.06640625,144.53125,0.0
1732199474.0632608,-173.828125,594.23828125,219.7265625,142.08984375,0.0
1732199474.0671663,-158.69140625,757.32421875,437.5,56.15234375,0.0
1732199474.0710719,-136.71875,697.75390625,381.34765625,14.6484375,0.0
1732199474.0749874,-164.0625,632.8125,242.67578125,32.71484375,0.0
1732199474.078893,-190.4296875,653.3203125,361.328125,104.00390625,0.0
1732199474.0827987,-193.359375,675.29296875,453.61328125,112.3046875,0.0
1732199474.0867043,-205.078125,641.11328125,405.76171875,-3.41796875,0.0
1732199474.0906098,-270.5078125,548.828125,254.39453125,-98.14453125,0.0
1732199474.0945153,-285.64453125,528.3203125,175.29296875,-69.3359375,0.0
1732199474.0984209,-172.8515625,594.23828125,363.28125,52.24609375,0.0
1732199474.1023264,-138.671875,604.00390625,441.89453125,68.84765625,0.0
1732199474.106232,-147.94921875,476.07421875,208.984375,-25.87890625,0.0
1732199474.1101375,-141.6015625,528.3203125,235.3515625,-98.6328125,0.0
1732199474.114043,-153.3203125,639.6484375,430.6640625,-74.21875,0.0
1732199474.1179485,-104.4921875,603.515625,372.0703125,47.36328125,0.0
1732199474.1218636,-55.6640625,620.60546875,352.05078125,70.3125,0.0
1732199474.1257691,-80.56640625,640.13671875,396.97265625,-30.2734375,0.0
1732199474.1296747,-83.0078125,586.42578125,374.0234375,-105.95703125,0.0
1732199474.1335802,-89.35546875,492.67578125,179.6875,-79.58984375,0.0
1732199474.1374857,-90.33203125,482.91015625,187.5,36.62109375,0.0
1732199474.1413913,-46.875,514.6484375,358.88671875,78.125,0.0
1732199474.1452968,-43.45703125,538.57421875,400.87890625,-19.04296875,0.0
1732199474.1492026,-31.25,414.0625,144.04296875,-110.83984375,0.0
1732199474.1531081,-63.96484375,328.125,-95.21484375,-110.3515625,0.0
1732199474.1570137,-69.3359375,553.22265625,294.921875,-10.7421875,0.0
1732199474.1609192,-42.96875,538.57421875,427.24609375,56.640625,0.0
1732199474.1648247,-77.63671875,396.97265625,252.44140625,-3.90625,0.0
1732199474.168739,-89.35546875,360.3515625,147.94921875,-104.98046875,0.0
1732199474.1726449,-88.37890625,343.26171875,110.3515625,-132.8125,0.0
1732199474.1765504,-72.75390625,304.6875,121.58203125,-27.83203125,0.0
1732199474.180456,-68.359375,301.26953125,198.2421875,76.66015625,0.0
1732199474.1843615,-69.3359375,289.0625,299.31640625,40.0390625,0.0
1732199474.188267,-24.90234375,206.0546875,145.99609375,-57.12890625,0.0
1732199474.1921725,-44.921875,189.94140625,17.578125,-115.72265625,0.0
1732199474.196078,-69.82421875,130.37109375,-64.94140625,-54.19921875,0.0
1732199474.1999836,-45.8984375,232.91015625,159.1796875,45.41015625,0.0
1732199474.2038891,-62.5,370.60546875,466.30859375,2.9296875,0.0
1732199474.2077947,-58.59375,218.26171875,297.36328125,-80.56640625,0.0
1732199474.2117002,-67.87109375,129.39453125,122.0703125,-88.37890625,0.0
1732199474.215614,-76.171875,194.3359375,250.0,-18.06640625,0.0
1732199474.2195196,-53.7109375,230.95703125,423.828125,85.44921875,0.0
1732199474.2234251,-36.1328125,124.0234375,321.77734375,100.09765625,0.0
1732199474.2273307,-59.08203125,90.33203125,253.41796875,7.8125,0.0
1732199474.2312362,-68.359375,130.859375,333.984375,-61.5234375,0.0
1732199474.2351418,-57.12890625,69.82421875,337.40234375,-19.53125,0.0
1732199474.2390473,-57.12890625,-9.765625,276.85546875,64.94140625,0.0
1732199474.2429528,-54.6875,-12.6953125,293.9453125,46.875,0.0
1732199474.2468584,-71.2890625,122.55859375,432.6171875,-29.78515625,0.0
1732199474.250764,-76.66015625,27.34375,338.8671875,-92.28515625,0.0
1732199474.2546694,-67.87109375,-22.94921875,346.6796875,-95.703125,0.0
1732199474.258575,-38.57421875,91.30859375,452.1484375,-7.8125,0.0
1732199474.2624886,-17.578125,127.44140625,457.03125,6.34765625,0.0
1732199474.2663941,-43.9453125,45.41015625,397.4609375,-84.47265625,0.0
1732199474.2702997,-51.26953125,-36.1328125,354.00390625,-151.3671875,0.0
1732199474.2742052,-53.7109375,-13.671875,386.23046875,-107.91015625,0.0
1732199474.2781107,-84.47265625,15.625,437.98828125,-10.25390625,0.0
1732199474.2820163,-84.47265625,-41.9921875,407.71484375,32.71484375,0.0
1732199474.2859218,-34.66796875,-176.7578125,208.0078125,-16.11328125,0.0
1732199474.2898273,1.46484375,-84.47265625,277.83203125,-79.1015625,0.0
1732199474.293733,0.9765625,87.40234375,438.4765625,-71.77734375,0.0
1732199474.2976384,-50.29296875,19.53125,386.23046875,37.109375,0.0
1732199474.301544,-93.26171875,1.46484375,401.85546875,103.515625,0.0
1732199474.3054495,-19.53125,26.3671875,394.53125,33.203125,0.0
1732199474.3093622,32.2265625,52.734375,365.72265625,-50.29296875,0.0
1732199474.3132677,-97.65625,47.36328125,275.87890625,-27.83203125,0.0
1732199474.3171732,-84.47265625,80.56640625,259.27734375,89.35546875,0.0
1732199474.3210788,7.8125,249.51171875,367.1875,140.13671875,0.0
1732199474.3249843,20.01953125,259.27734375,327.63671875,86.9140625,0.0
1732199474.3288898,60.546875,87.40234375,-79.58984375,38.57421875,0.0
1732199474.3327954,23.4375,104.00390625,-256.34765625,32.71484375,0.0
1732199474.336701,25.87890625,350.5859375,66.89453125,138.671875,0.0
1732199474.3406065,54.19921875,400.87890625,136.71875,220.703125,0.0
1732199474.3445122,28.80859375,314.94140625,-70.80078125,152.83203125,0.0
1732199474.3484178,22.4609375,315.4296875,-163.0859375,55.6640625,0.0
1732199474.3523233,41.9921875,395.5078125,-97.16796875,35.64453125,0.0
1732199474.35624,23.92578125,428.7109375,-44.921875,131.34765625,0.0
1732199474.3601456,20.5078125,455.56640625,0.48828125,216.796875,0.0
1732199474.364051,3.41796875,463.37890625,-4.39453125,169.921875,0.0
1732199474.3679566,-27.83203125,482.421875,39.0625,71.77734375,0.0
1732199474.3718622,9.765625,454.1015625,-29.296875,39.0625,0.0
1732199474.3757677,22.4609375,403.80859375,-134.765625,130.37109375,0.0
1732199474.3796732,-26.3671875,480.46875,12.6953125,175.29296875,0.0
1732199474.3835788,-71.2890625,569.82421875,157.2265625,125.9765625,0.0
1732199474.3874843,-69.82421875,559.5703125,79.1015625,84.9609375,0.0
1732199474.3913898,120.60546875,486.328125,-171.875,14.6484375,0.0
1732199474.3952956,66.89453125,625.9765625,-60.546875,57.12890625,0.0
1732199474.3992012,-28.3203125,804.19921875,198.2421875,138.18359375,0.0
1732199474.4031174,108.88671875,767.578125,76.66015625,111.81640625,0.0
1732199474.407023,33.203125,705.078125,-74.70703125,63.4765625,0.0
1732199474.4109285,43.45703125,737.3046875,-81.0546875,23.4375,0.0
1732199474.414834,90.8203125,780.2734375,-63.96484375,78.125,0.0
1732199474.4187396,46.875,766.11328125,-83.49609375,196.2890625,0.0
1732199474.422645,96.19140625,757.32421875,-123.53515625,200.1953125,0.0
1732199474.4265506,106.93359375,799.8046875,-123.046875,87.40234375,0.0
1732199474.4304562,102.5390625,865.72265625,-102.5390625,18.06640625,0.0
1732199474.4343617,87.40234375,791.50390625,-278.80859375,73.73046875,0.0
1732199474.4382672,108.3984375,777.34375,-255.37109375,218.26171875,0.0
1732199474.4421728,132.32421875,978.02734375,124.51171875,233.88671875,0.0
1732199474.4460783,125.9765625,970.703125,53.22265625,142.08984375,0.0
1732199474.4499938,91.30859375,927.24609375,-144.04296875,62.5,0.0
1732199474.4538994,39.0625,952.1484375,-139.16015625,40.52734375,0.0
1732199474.457805,25.390625,973.6328125,34.1796875,121.09375,0.0
1732199474.4617105,60.546875,964.84375,85.9375,159.1796875,0.0
1732199474.465616,113.76953125,968.26171875,-52.734375,96.6796875,0.0
1732199474.4695215,115.72265625,967.7734375,-171.875,52.24609375,0.0
1732199474.473427,75.1953125,967.7734375,-199.21875,85.9375,0.0
1732199474.4773326,115.234375,967.7734375,-72.75390625,162.59765625,0.0
1732199474.4812381,179.6875,967.28515625,-116.69921875,247.55859375,0.0
1732199474.4851437,203.61328125,967.28515625,-33.203125,205.078125,0.0
1732199474.4890492,157.71484375,967.7734375,94.7265625,82.51953125,0.0
1732199474.4929547,160.64453125,967.7734375,-131.8359375,84.9609375,0.0
1732199474.49687,211.42578125,967.28515625,-96.6796875,185.05859375,0.0
1732199474.5007756,134.27734375,967.7734375,124.0234375,288.57421875,0.0
1732199474.504681,102.5390625,967.7734375,101.5625,236.328125,0.0
1732199474.5085866,137.6953125,967.7734375,-112.79296875,98.14453125,0.0
1732199474.5124922,118.1640625,967.7734375,-237.3046875,76.171875,0.0
1732199474.5163977,56.640625,967.7734375,-180.17578125,163.0859375,0.0
1732199474.5203035,53.7109375,967.7734375,-80.078125,245.1171875,0.0
1732199474.524209,100.09765625,967.7734375,-197.75390625,197.75390625,0.0
1732199474.5281146,41.015625,967.28515625,-286.1328125,106.4453125,0.0
1732199474.53202,57.12890625,967.28515625,-83.984375,84.9609375,0.0
1732199474.5359256,49.31640625,967.7734375,-145.01953125,156.25,0.0
1732199474.5398312,-4.8828125,967.28515625,-95.21484375,222.16796875,0.0
1732199474.5437455,34.1796875,967.28515625,45.8984375,180.17578125,0.0
1732199474.547651,25.390625,967.7734375,-14.16015625,70.3125,0.0
1732199474.5515566,9.27734375,967.7734375,-142.578125,5.37109375,0.0
1732199474.5554621,46.875,967.7734375,-110.83984375,93.26171875,0.0
1732199474.5593677,42.96875,966.30859375,80.078125,187.98828125,0.0
1732199474.5632732,113.76953125,968.26171875,87.40234375,136.71875,0.0
1732199474.5671787,150.390625,970.703125,10.25390625,78.61328125,0.0
1732199474.5710843,158.203125,923.33984375,-209.9609375,62.5,0.0
1732199474.5749898,159.66796875,941.89453125,-74.21875,94.23828125,0.0
1732199474.5788953,175.78125,976.5625,375.48828125,209.47265625,0.0
1732199474.5828009,193.84765625,963.37890625,324.21875,215.33203125,0.0
1732199474.5867064,170.8984375,964.35546875,162.109375,129.8828125,0.0
1732199474.5906203,185.546875,967.28515625,85.9375,52.734375,0.0
1732199474.5945258,173.828125,967.7734375,94.23828125,50.29296875,0.0
1732199474.5984313,148.92578125,967.28515625,259.765625,160.15625,0.0
1732199474.602337,132.8125,967.7734375,331.0546875,199.70703125,0.0
1732199474.6062427,85.44921875,967.28515625,339.35546875,116.69921875,0.0
1732199474.6101482,75.68359375,967.7734375,189.453125,59.08203125,0.0
1732199474.6140537,83.49609375,967.7734375,-5.859375,98.6328125,0.0
1732199474.6179593,17.578125,967.7734375,94.23828125,195.80078125,0.0
1732199474.6218648,11.71875,967.28515625,424.31640625,211.9140625,0.0
1732199474.6257703,38.57421875,967.28515625,414.55078125,132.32421875,0.0
1732199474.6296759,26.85546875,967.7734375,274.90234375,69.3359375,0.0
1732199474.6335814,29.78515625,967.7734375,322.265625,67.87109375,0.0
1732199474.6374948,76.66015625,967.28515625,423.828125,166.9921875,0.0
1732199474.6414003,92.28515625,967.7734375,424.31640625,249.0234375,0.0
1732199474.6453059,46.875,967.7734375,409.66796875,187.01171875,0.0
1732199474.6492114,24.4140625,967.7734375,362.79296875,111.81640625,0.0
1732199474.653117,35.15625,967.7734375,348.14453125,98.14453125,0.0
1732199474.6570225,70.3125,967.7734375,397.94921875,184.5703125,0.0
1732199474.660928,20.01953125,967.7734375,347.16796875,257.32421875,0.0
1732199474.6648335,-13.18359375,967.7734375,384.27734375,220.703125,0.0
1732199474.668739,-12.6953125,967.7734375,455.56640625,138.18359375,0.0
1732199474.6726446,-42.96875,967.7734375,368.1640625,120.1171875,0.0
1732199474.6765501,-65.4296875,967.7734375,412.59765625,227.5390625,0.0
1732199474.6804557,-60.546875,967.28515625,496.58203125,286.62109375,0.0
1732199474.6843686,-65.91796875,967.28515625,482.91015625,240.72265625,0.0
1732199474.6882741,-98.14453125,967.7734375,391.11328125,144.53125,0.0
1732199474.6921797,-99.609375,967.7734375,376.953125,97.16796875,0.0
1732199474.6960852,-98.14453125,967.7734375,463.37890625,177.734375,0.0
1732199474.6999907,-122.0703125,967.7734375,483.3984375,254.8828125,0.0
1732199474.7038963,-118.65234375,967.7734375,375.48828125,235.3515625,0.0
1732199474.7078018,-139.6484375,967.7734375,351.5625,159.66796875,0.0
1732199474.7117074,-148.92578125,967.7734375,466.30859375,77.1484375,0.0
1732199474.715613,-166.9921875,967.7734375,479.98046875,126.953125,0.0
1732199474.7195184,-152.34375,967.7734375,431.15234375,214.35546875,0.0
1732199474.723424,-123.53515625,967.7734375,436.03515625,199.70703125,0.0
1732199474.7273295,-105.46875,967.28515625,442.3828125,131.34765625,0.0
1732199474.7312467,-85.9375,967.28515625,370.1171875,48.33984375,0.0
1732199474.7351522,-113.28125,967.7734375,355.46875,63.96484375,0.0
1732199474.7390578,-57.6171875,967.28515625,403.3203125,189.453125,0.0
1732199474.7429633,-53.7109375,967.28515625,420.8984375,196.77734375,0.0
1732199474.7468688,-110.3515625,967.28515625,374.0234375,106.4453125,0.0
1732199474.7507744,-88.8671875,967.7734375,242.67578125,69.82421875,0.0
1732199474.75468,-82.03125,967.28515625,280.2734375,74.21875,0.0
1732199474.7585855,-84.9609375,967.7734375,442.3828125,155.76171875,0.0
1732199474.762491,-53.7109375,967.28515625,417.96875,176.26953125,0.0
1732199474.7663965,-35.15625,964.35546875,267.08984375,89.35546875,0.0
1732199474.770302,-32.71484375,966.796875,320.80078125,0.9765625,0.0
1732199474.7742076,-30.76171875,967.7734375,383.7890625,39.55078125,0.0
1732199474.7781236,-27.34375,967.28515625,348.14453125,151.3671875,0.0
1732199474.7820292,-27.34375,967.28515625,370.1171875,170.8984375,0.0
1732199474.785935,-50.29296875,966.30859375,387.6953125,71.2890625,0.0
1732199474.7898405,-17.578125,971.6796875,359.375,25.390625,0.0
1732199474.793746,0.0,948.2421875,299.31640625,71.77734375,0.0
1732199474.7976515,-24.90234375,947.265625,332.51953125,109.375,0.0
1732199474.801557,-30.76171875,948.73046875,443.359375,131.8359375,0.0
1732199474.8054626,-53.7109375,999.51171875,477.05078125,82.51953125,0.0
1732199474.8093681,-15.13671875,781.73828125,232.421875,16.6015625,0.0
1732199474.8132737,-12.6953125,622.0703125,135.7421875,7.8125,0.0
1732199474.8171792,-24.4140625,967.7734375,410.64453125,99.12109375,0.0
1732199474.8210847,20.01953125,978.515625,371.58203125,193.359375,0.0
1732199474.8250003,12.20703125,945.3125,344.7265625,140.13671875,0.0
1732199474.8289058,8.30078125,965.33203125,370.1171875,63.96484375,0.0
1732199474.8328114,43.9453125,963.8671875,341.30859375,41.015625,0.0
1732199474.836717,53.22265625,962.40234375,340.33203125,104.98046875,0.0
1732199474.8406224,-18.06640625,957.03125,328.125,194.82421875,0.0
1732199474.844528,-3.90625,940.91796875,297.36328125,148.4375,0.0
1732199474.8484335,61.03515625,870.60546875,192.87109375,68.84765625,0.0
1732199474.852339,36.1328125,761.23046875,22.4609375,51.7578125,0.0
1732199474.8562446,21.484375,421.38671875,-138.18359375,128.90625,0.0
1732199474.86015,27.34375,614.74609375,131.34765625,215.33203125,0.0
1732199474.8640556,65.91796875,999.51171875,405.2734375,152.34375,0.0
1732199474.8679612,87.890625,869.140625,223.6328125,59.5703125,0.0
1732199474.8718762,74.21875,708.49609375,62.98828125,25.87890625,0.0
1732199474.8757818,84.9609375,670.8984375,154.78515625,77.63671875,0.0
1732199474.8796873,90.33203125,800.29296875,321.77734375,192.3828125,0.0
1732199474.8835928,59.08203125,774.90234375,264.6484375,182.12890625,0.0
1732199474.8874984,79.1015625,534.1796875,198.73046875,66.89453125,0.0
1732199474.891404,107.91015625,277.34375,31.25,4.8828125,0.0
1732199474.8953094,55.6640625,334.9609375,24.4140625,36.62109375,0.0
1732199474.899215,43.9453125,374.0234375,100.5859375,133.7890625,0.0
1732199474.9031205,155.2734375,123.53515625,-58.59375,163.57421875,0.0
1732199474.907026,152.34375,522.4609375,195.80078125,96.6796875,0.0
1732199474.9109316,95.21484375,499.0234375,119.140625,12.6953125,0.0
1732199474.9148371,89.84375,156.73828125,-153.3203125,20.5078125,0.0
1732199474.9187517,134.765625,346.19140625,98.14453125,141.11328125,0.0
1732199474.9226573,158.69140625,634.27734375,312.98828125,172.8515625,0.0
1732199474.9265628,187.5,503.90625,145.01953125,55.17578125,0.0
1732199474.9304683,160.15625,191.89453125,-149.4140625,-21.484375,0.0
1732199474.9343739,115.234375,43.9453125,-288.57421875,-13.671875,0.0
1732199474.9382794,203.125,153.80859375,-174.31640625,114.74609375,0.0
1732199474.942185,264.6484375,333.0078125,1.953125,201.171875,0.0
1732199474.9460905,240.234375,-145.5078125,-184.08203125,102.05078125,0.0
1732199474.949996,147.94921875,-150.87890625,-173.33984375,-1.953125,0.0
1732199474.9539015,205.078125,363.28125,41.015625,0.0,0.0
1732199474.957807,228.515625,198.2421875,-33.203125,123.046875,0.0
1732199474.9617126,174.31640625,125.48828125,5.859375,167.48046875,0.0
1732199474.9656265,213.37890625,246.09375,118.65234375,94.7265625,0.0
1732199474.969532,227.05078125,157.2265625,-21.484375,75.1953125,0.0
1732199474.9734375,229.98046875,-229.98046875,-291.50390625,70.3125,0.0
1732199474.977343,126.953125,-274.4140625,-214.35546875,119.140625,0.0
1732199474.9812486,103.515625,42.48046875,126.953125,176.26953125,0.0
1732199474.9851544,179.19921875,-146.97265625,38.57421875,115.72265625,0.0
1732199474.98906,138.671875,-652.83203125,-323.2421875,19.53125,0.0
1732199474.9929655,144.04296875,-793.45703125,-378.90625,23.92578125,0.0
1732199474.996871,172.8515625,-220.21484375,-37.109375,76.66015625,0.0
1732199475.0007765,173.828125,55.6640625,129.8828125,151.85546875,0.0
1732199475.004682,163.57421875,-200.68359375,-44.921875,169.921875,0.0
1732199475.0085876,133.7890625,-328.125,-227.05078125,104.00390625,0.0
1732199475.0125008,90.33203125,-285.64453125,-245.1171875,59.08203125,0.0
1732199475.0164063,134.27734375,-299.31640625,-260.7421875,72.75390625,0.0
1732199475.0203118,163.57421875,-303.22265625,-250.48828125,101.5625,0.0
1732199475.0242174,140.625,-213.8671875,-232.91015625,140.13671875,0.0
1732199475.028123,124.51171875,-281.73828125,-323.73046875,53.7109375,0.0
1732199475.0320284,111.328125,-622.0703125,-430.6640625,4.39453125,0.0
1732199475.0359342,97.16796875,-943.359375,-477.5390625,156.25,0.0
1732199475.0398397,73.2421875,-641.11328125,-293.9453125,191.89453125,0.0
1732199475.0437453,55.6640625,-55.17578125,-85.9375,145.01953125,0.0
1732199475.0476508,54.19921875,-359.86328125,-282.2265625,62.01171875,0.0
1732199475.0515563,53.22265625,-680.6640625,-357.421875,60.05859375,0.0
1732199475.055462,45.41015625,-510.25390625,-234.86328125,145.5078125,0.0
1732199475.0593746,67.3828125,-329.58984375,-99.12109375,185.546875,0.0
1732199475.06328,65.91796875,-456.0546875,-158.69140625,144.04296875,0.0
1732199475.0671856,23.4375,-691.89453125,-281.73828125,66.89453125,0.0
1732199475.0710912,-19.53125,-662.59765625,-247.55859375,42.48046875,0.0
1732199475.0749967,-29.296875,-643.06640625,-217.28515625,111.81640625,0.0
1732199475.0789022,12.6953125,-873.53515625,-306.640625,200.68359375,0.0
1732199475.0828078,49.31640625,-812.98828125,-259.27734375,185.546875,0.0
1732199475.0867133,50.29296875,-424.8046875,-44.921875,111.81640625,0.0
1732199475.0906188,0.48828125,-535.15625,-125.0,85.9375,0.0
1732199475.0945244,50.78125,-834.9609375,-256.8359375,167.96875,0.0
1732199475.09843,79.58984375,-704.1015625,-90.33203125,184.08203125,0.0
1732199475.1023355,39.0625,-472.16796875,83.984375,107.421875,0.0
1732199475.1062522,-29.78515625,-742.1875,-100.5859375,59.08203125,0.0
1732199475.1101577,-82.51953125,-927.734375,-245.60546875,16.6015625,0.0
1732199475.1140633,-50.29296875,-791.50390625,-175.78125,4.8828125,0.0
1732199475.1179688,-48.828125,-607.421875,-40.52734375,153.80859375,0.0
1732199475.1218743,-12.20703125,-529.296875,-13.18359375,234.375,0.0
1732199475.1257799,-0.48828125,-768.5546875,-186.5234375,128.41796875,0.0
1732199475.1296854,43.9453125,-935.546875,-327.1484375,77.1484375,0.0
1732199475.133591,41.015625,-806.640625,-296.38671875,58.10546875,0.0
1732199475.1374965,21.97265625,-594.23828125,-158.69140625,106.93359375,0.0
1732199475.141402,19.04296875,-698.2421875,-178.22265625,184.5703125,0.0
1732199475.1453075,17.578125,-526.3671875,-96.6796875,142.08984375,0.0
1732199475.149213,49.31640625,-292.48046875,-35.64453125,69.3359375,0.0
1732199475.1531296,84.9609375,-638.18359375,-269.04296875,128.41796875,0.0
1732199475.157035,103.02734375,-689.453125,-264.6484375,196.77734375,0.0
1732199475.1609406,64.453125,-470.703125,-74.21875,174.31640625,0.0
1732199475.1648462,37.59765625,-461.9140625,-62.98828125,130.859375,0.0
1732199475.1687517,41.015625,-637.20703125,-189.453125,81.0546875,0.0
1732199475.1726573,79.58984375,-977.5390625,-338.8671875,53.7109375,0.0
1732199475.1765628,73.2421875,-814.94140625,-184.08203125,128.41796875,0.0
1732199475.1804683,75.68359375,-429.19921875,64.453125,240.234375,0.0
1732199475.1843739,70.80078125,-660.15625,-117.1875,245.1171875,0.0
1732199475.1882794,26.3671875,-895.01953125,-289.55078125,155.76171875,0.0
1732199475.192185,18.5546875,-619.140625,-59.08203125,74.21875,0.0
1732199475.1960905,-2.44140625,-612.3046875,-30.2734375,137.6953125,0.0
1732199475.200006,-18.5546875,-658.203125,-14.6484375,235.83984375,0.0
1732199475.2039115,-45.8984375,-515.13671875,73.73046875,215.8203125,0.0
1732199475.207817,-69.3359375,-437.5,77.1484375,121.58203125,0.0
1732199475.2117226,-62.5,-618.65234375,-50.29296875,41.9921875,0.0
1732199475.2156281,-75.68359375,-802.24609375,-110.83984375,111.81640625,0.0
1732199475.2195337,-90.33203125,-725.09765625,12.6953125,210.44921875,0.0
1732199475.2234395,-105.46875,-576.66015625,109.86328125,152.34375,0.0
1732199475.227345,-106.4453125,-609.375,86.9140625,90.8203125,0.0
1732199475.2312505,-110.3515625,-866.69921875,-163.57421875,27.83203125,0.0
1732199475.235156,-106.93359375,-676.7578125,-39.0625,8.30078125,0.0
1732199475.2390616,-116.69921875,-183.10546875,381.8359375,104.00390625,0.0
1732199475.2429671,-161.1328125,-271.484375,345.703125,128.41796875,0.0
1732199475.2468822,-155.2734375,-479.98046875,201.66015625,72.75390625,0.0
1732199475.2507877,-126.953125,-452.1484375,157.2265625,-5.37109375,0.0
1732199475.2546933,-91.30859375,-462.40234375,127.9296875,24.4140625,0.0
1732199475.2585988,-69.82421875,-516.11328125,117.1875,96.6796875,0.0
1732199475.2625043,-113.28125,-494.62890625,158.203125,98.6328125,0.0
1732199475.2664099,-150.390625,-517.08984375,127.9296875,45.8984375,0.0
1732199475.2703154,-166.9921875,-487.3046875,77.1484375,-62.5,0.0
1732199475.274221,-145.99609375,-653.80859375,-83.984375,-72.265625,0.0
1732199475.2781265,-121.09375,-829.58984375,-173.828125,12.20703125,0.0
1732199475.282032,-102.05078125,-219.23828125,244.140625,83.0078125,0.0
1732199475.2859378,-83.0078125,15.625,365.72265625,12.6953125,0.0
1732199475.2898433,-117.1875,-354.00390625,113.76953125,-124.51171875,0.0
1732199475.2937577,-147.94921875,-426.7578125,5.859375,-57.6171875,0.0
1732199475.2976632,-101.07421875,-177.24609375,116.69921875,69.3359375,0.0
1732199475.3015687,-64.453125,-85.9375,260.7421875,65.4296875,0.0
1732199475.3054743,-98.14453125,-191.89453125,214.35546875,19.53125,0.0
1732199475.3093798,-111.81640625,-300.78125,100.09765625,-10.7421875,0.0
1732199475.3132854,-81.0546875,-449.70703125,11.71875,-101.07421875,0.0
1732199475.317191,-94.23828125,-367.67578125,80.078125,-87.40234375,0.0
1732199475.3210967,-97.65625,-518.06640625,35.15625,77.63671875,0.0
1732199475.3250022,-109.86328125,-300.29296875,150.390625,72.265625,0.0
1732199475.3289077,-122.0703125,210.44921875,378.41796875,-74.21875,0.0
1732199475.3328133,-104.4921875,-134.27734375,88.37890625,-72.265625,0.0
1732199475.3367188,-97.16796875,-191.89453125,25.390625,52.24609375,0.0
1732199475.3406327,-41.50390625,199.21875,303.22265625,169.43359375,0.0
1732199475.3445382,-2.44140625,297.8515625,342.7734375,144.53125,0.0
1732199475.3484437,-11.71875,-12.20703125,47.8515625,12.6953125,0.0
1732199475.3523493,-38.0859375,-193.84765625,-139.6484375,6.34765625,0.0
1732199475.3562548,-47.36328125,-9.765625,-29.296875,93.75,0.0
1732199475.3601604,12.6953125,34.1796875,30.2734375,206.54296875,0.0
1732199475.364066,20.99609375,-156.25,-104.98046875,214.35546875,0.0
1732199475.3679714,-51.26953125,-336.9140625,-223.6328125,118.65234375,0.0
1732199475.371877,20.01953125,44.921875,-68.84765625,6.34765625,0.0
1732199475.3757825,80.078125,298.828125,-27.83203125,52.734375,0.0
1732199475.379688,49.8046875,55.17578125,-179.6875,230.95703125,0.0
1732199475.3835936,25.87890625,101.07421875,-154.296875,233.3984375,0.0
1732199475.387507,-27.34375,393.5546875,-60.546875,92.28515625,0.0
1732199475.3914125,-39.0625,66.40625,-310.05859375,8.7890625,0.0
1732199475.395318,-46.875,-44.43359375,-361.328125,112.3046875,0.0
1732199475.3992236,-67.3828125,316.40625,-107.421875,230.95703125,0.0
1732199475.403129,-88.8671875,459.47265625,-41.015625,174.8046875,0.0
1732199475.4070346,-71.2890625,253.41796875,-209.47265625,104.98046875,0.0
1732199475.4109402,-80.078125,-343.26171875,-414.0625,86.42578125,0.0
1732199475.4148457,-50.29296875,-353.515625,-361.81640625,90.8203125,0.0
1732199475.4187512,23.4375,453.61328125,-39.0625,180.17578125,0.0
1732199475.4226568,0.9765625,505.859375,-46.875,240.72265625,0.0
1732199475.4265623,-45.41015625,274.4140625,-175.78125,188.4765625,0.0
1732199475.4304678,-3.90625,280.76171875,-198.73046875,76.66015625,0.0
1732199475.4343808,16.11328125,257.8125,-246.58203125,51.7578125,0.0
1732199475.4382863,-4.39453125,162.59765625,-259.27734375,147.94921875,0.0
1732199475.4421918,20.5078125,189.453125,-205.078125,216.30859375,0.0
1732199475.4460974,48.33984375,200.1953125,-207.51953125,137.20703125,0.0
1732199475.450003,60.05859375,101.07421875,-266.6015625,66.89453125,0.0
1732199475.4539084,58.10546875,-245.1171875,-413.0859375,84.47265625,0.0
1732199475.457814,20.01953125,-375.0,-325.1953125,158.203125,0.0
1732199475.4617195,33.203125,252.9296875,52.24609375,180.6640625,0.0
1732199475.4656253,95.21484375,399.90234375,24.4140625,101.5625,0.0
1732199475.4695308,111.328125,-15.13671875,-216.30859375,50.78125,0.0
1732199475.4734364,97.16796875,-142.578125,-280.2734375,48.828125,0.0
1732199475.477342,82.03125,207.51953125,-93.26171875,119.140625,0.0
1732199475.4812586,73.73046875,330.56640625,-7.32421875,176.7578125,0.0
1732199475.4851642,65.4296875,213.8671875,-80.56640625,132.8125,0.0
1732199475.4890697,17.08984375,94.7265625,-169.921875,47.36328125,0.0
1732199475.4929752,-15.625,78.125,-211.9140625,15.625,0.0
1732199475.4968808,-5.859375,204.1015625,-168.45703125,124.51171875,0.0
1732199475.5007863,23.4375,182.12890625,-159.66796875,210.9375,0.0
1732199475.5046918,-47.8515625,187.5,-181.15234375,173.33984375,0.0
1732199475.5085974,-112.3046875,228.515625,-222.65625,82.03125,0.0
1732199475.512503,-124.51171875,157.2265625,-317.87109375,15.13671875,0.0
1732199475.5164084,-132.8125,6.34765625,-330.56640625,111.81640625,0.0
1732199475.520314,-98.14453125,400.87890625,-77.1484375,211.42578125,0.0
1732199475.5242195,-110.3515625,831.0546875,14.6484375,192.3828125,0.0
1732199475.5281355,-120.1171875,542.96875,-228.515625,118.1640625,0.0
1732199475.532041,-76.66015625,303.22265625,-346.19140625,77.1484375,0.0
1732199475.5359468,-116.69921875,468.26171875,-217.7734375,140.13671875,0.0
1732199475.5398524,-154.78515625,680.6640625,-68.84765625,212.890625,0.0
1732199475.543758,-110.3515625,565.4296875,-133.30078125,158.203125,0.0
1732199475.5476635,-60.05859375,220.703125,-317.87109375,88.8671875,0.0
1732199475.551569,-7.32421875,208.984375,-322.75390625,43.45703125,0.0
1732199475.5554745,28.80859375,468.75,-193.84765625,31.73828125,0.0
1732199475.55938,24.4140625,228.515625,-287.59765625,118.65234375,0.0
1732199475.5632856,36.62109375,-11.23046875,-320.80078125,134.765625,0.0
1732199475.5671911,44.43359375,495.60546875,-80.56640625,58.59375,0.0
1732199475.5710967,11.23046875,446.2890625,-191.40625,12.20703125,0.0
1732199475.5750124,-33.69140625,82.51953125,-330.56640625,64.453125,0.0
1732199475.578918,-28.3203125,216.30859375,-168.45703125,140.13671875,0.0
1732199475.5828235,-0.9765625,440.91796875,-31.25,156.25,0.0
1732199475.586729,-29.296875,281.73828125,-126.46484375,111.81640625,0.0
1732199475.5906346,-69.82421875,-66.89453125,-262.20703125,3.41796875,0.0
1732199475.59454,-58.59375,-302.734375,-312.98828125,6.34765625,0.0
1732199475.5984457,-72.75390625,-190.91796875,-160.15625,111.328125,0.0
1732199475.6023512,-76.171875,-40.0390625,-24.4140625,123.53515625,0.0
1732199475.6062567,-33.69140625,-469.23828125,-205.078125,91.30859375,0.0
1732199475.6101623,-52.734375,-464.84375,-145.5078125,29.78515625,0.0
1732199475.6140678,-70.80078125,-50.29296875,84.9609375,0.0,0.0
1732199475.6179733,-26.85546875,-255.859375,40.52734375,83.0078125,0.0
1732199475.6218884,9.765625,-247.0703125,131.34765625,121.09375,0.0
1732199475.625794,30.2734375,-65.91796875,304.19921875,57.12890625,0.0
1732199475.6296995,41.9921875,-195.80078125,243.65234375,-14.6484375,0.0
1732199475.633605,73.73046875,-553.7109375,58.10546875,-28.3203125,0.0
1732199475.6375105,102.05078125,-621.09375,149.90234375,41.9921875,0.0
1732199475.641416,106.4453125,-501.46484375,378.90625,96.6796875,0.0
1732199475.6453216,136.71875,-510.7421875,448.2421875,16.11328125,0.0
1732199475.6492271,174.8046875,-714.84375,229.00390625,-74.70703125,0.0
1732199475.6531327,166.015625,-921.38671875,27.34375,-69.82421875,0.0
1732199475.6570382,170.8984375,-569.3359375,372.0703125,-9.765625,0.0
1732199475.6609437,219.23828125,-411.1328125,476.07421875,33.69140625,0.0
1732199475.6648493,215.8203125,-646.484375,319.82421875,-1.46484375,0.0
1732199475.6687639,198.2421875,-724.12109375,300.29296875,-83.49609375,0.0
1732199475.6726694,186.5234375,-755.37109375,219.7265625,-92.28515625,0.0
1732199475.676575,163.57421875,-869.140625,69.82421875,-5.37109375,0.0
1732199475.6804805,150.390625,-619.62890625,140.625,66.40625,0.0
1732199475.684386,128.41796875,-358.88671875,162.109375,54.6875,0.0
1732199475.6882915,115.72265625,-477.05078125,-0.9765625,2.9296875,0.0
1732199475.692197,81.0546875,-566.89453125,-101.07421875,-30.2734375,0.0
1732199475.6961026,46.38671875,-768.5546875,-224.609375,37.59765625,0.0
1732199475.7000082,50.78125,-501.46484375,-31.25,118.1640625,0.0
1732199475.7039137,48.33984375,67.87109375,229.98046875,100.09765625,0.0
1732199475.7078195,-10.25390625,-67.87109375,67.3828125,43.45703125,0.0
1732199475.711725,-7.8125,-318.359375,-112.3046875,-43.9453125,0.0
1732199475.7156389,5.859375,-188.4765625,-58.10546875,-39.55078125,0.0
1732199475.7195444,-3.41796875,70.80078125,121.58203125,50.29296875,0.0
1732199475.72345,9.765625,-48.828125,79.1015625,74.70703125,0.0
1732199475.7273555,25.87890625,-215.33203125,-21.97265625,-0.48828125,0.0
1732199475.731261,82.03125,-224.12109375,-36.62109375,-58.10546875,0.0
1732199475.7351665,141.6015625,-346.6796875,-53.7109375,-10.25390625,0.0
1732199475.739072,187.98828125,-441.89453125,-10.25390625,72.265625,0.0
1732199475.7429776,199.70703125,-452.1484375,38.0859375,65.91796875,0.0
1732199475.7468832,209.47265625,0.48828125,306.640625,-39.55078125,0.0
1732199475.7507887,285.64453125,78.61328125,310.05859375,-92.28515625,0.0
1732199475.7546942,337.890625,-199.21875,80.56640625,-45.41015625,0.0
1732199475.7585998,257.32421875,-66.89453125,175.29296875,53.22265625,0.0
1732199475.7625132,214.35546875,180.17578125,370.1171875,88.37890625,0.0
1732199475.7664187,277.83203125,37.59765625,226.5625,5.37109375,0.0
1732199475.7703242,256.8359375,-219.23828125,-15.625,-32.2265625,0.0
1732199475.7742298,161.1328125,-160.15625,-5.37109375,-35.15625,0.0
1732199475.7781353,46.38671875,-8.7890625,90.8203125,28.3203125,0.0
1732199475.7820408,-21.97265625,-53.7109375,57.6171875,99.609375,0.0
1732199475.7859464,-32.2265625,-494.140625,-193.359375,59.08203125,0.0
1732199475.789852,-101.5625,-591.30859375,-270.01953125,-8.30078125,0.0
1732199475.7937574,-135.7421875,-59.08203125,-54.19921875,-2.9296875,0.0
1732199475.797663,-116.69921875,90.33203125,-9.27734375,103.515625,0.0
1732199475.8015687,-109.375,101.5625,2.9296875,179.19921875,0.0
1732199475.8054743,-131.34765625,205.078125,37.109375,123.53515625,0.0
1732199475.8093915,-102.5390625,203.125,-20.99609375,39.55078125,0.0
1732199475.813297,-62.98828125,-14.16015625,-168.9453125,34.1796875,0.0
1732199475.8172026,4.8828125,-42.48046875,-144.53125,104.4921875,0.0
1732199475.821108,113.28125,241.2109375,71.2890625,140.625,0.0
1732199475.8250139,150.390625,255.37109375,75.1953125,85.9375,0.0
1732199475.8289194,120.1171875,-224.609375,-174.8046875,2.44140625,0.0
1732199475.832825,162.109375,-547.36328125,-255.37109375,-24.90234375,0.0
1732199475.8367305,198.73046875,-32.2265625,69.82421875,41.015625,0.0
1732199475.840636,197.265625,281.73828125,270.01953125,116.2109375,0.0
1732199475.8445415,215.33203125,-32.71484375,104.00390625,90.33203125,0.0
1732199475.848447,228.02734375,-173.33984375,-42.96875,-4.39453125,0.0
1732199475.8523526,237.3046875,40.0390625,26.85546875,-37.109375,0.0
1732199475.8562694,217.28515625,49.31640625,-5.859375,26.85546875,0.0
1732199475.860175,140.625,-13.671875,-57.6171875,100.5859375,0.0
1732199475.8640804,103.02734375,119.62890625,-14.6484375,78.125,0.0
1732199475.867986,70.3125,264.16015625,-12.20703125,12.6953125,0.0
1732199475.8718915,6.8359375,162.59765625,-140.13671875,-35.15625,0.0
1732199475.875797,-10.25390625,-48.33984375,-259.765625,14.16015625,0.0
1732199475.8797026,-21.484375,65.4296875,-178.7109375,148.92578125,0.0
1732199475.883608,-18.5546875,384.765625,-41.015625,147.94921875,0.0
1732199475.8875136,-45.41015625,549.31640625,-44.921875,51.26953125,0.0
1732199475.8914192,-55.6640625,127.44140625,-270.5078125,13.671875,0.0
1732199475.8953247,-66.40625,296.38671875,-138.18359375,30.2734375,0.0
1732199475.8992302,-51.7578125,926.7578125,164.55078125,146.484375,0.0
1732199475.9031465,-45.8984375,696.2890625,60.546875,183.59375,0.0
1732199475.907052,-101.07421875,585.44921875,19.53125,64.453125,0.0
1732199475.9109576,-101.5625,687.98828125,92.28515625,-8.30078125,0.0
1732199475.914863,-90.33203125,642.578125,114.74609375,27.83203125,0.0
1732199475.9187686,-72.75390625,596.6796875,134.27734375,123.046875,0.0
1732199475.9226742,-43.9453125,431.15234375,90.8203125,153.80859375,0.0
1732199475.9265797,-3.90625,511.23046875,156.25,60.546875,0.0
1732199475.9304852,-2.44140625,735.83984375,292.48046875,-42.96875,0.0
1732199475.9343908,-33.203125,379.39453125,70.3125,-34.1796875,0.0
1732199475.9382963,-25.390625,204.1015625,13.671875,79.58984375,0.0
1732199475.942202,-27.34375,883.30078125,454.58984375,110.3515625,0.0
1732199475.9461076,-8.30078125,999.51171875,519.53125,14.6484375,0.0
1732199475.9500232,-24.90234375,940.91796875,563.96484375,-68.359375,0.0
1732199475.9539287,-45.41015625,974.12109375,727.5390625,-85.44921875,0.0
1732199475.9578342,-27.34375,962.890625,844.7265625,3.41796875,0.0
1732199475.9617398,-46.38671875,938.4765625,895.99609375,65.91796875,0.0
1732199475.9656453,-49.31640625,994.62890625,913.0859375,-0.48828125,0.0
1732199475.9695508,-72.75390625,426.7578125,921.875,-123.53515625,0.0
1732199475.9734564,-366.2109375,-683.59375,931.640625,-425.29296875,0.0
1732199475.977362,-836.9140625,-1000.0,932.12890625,-846.19140625,0.0
1732199475.9812675,-1000.0,-970.703125,907.2265625,-1000.0,0.0
1732199475.985173,-941.89453125,-1000.0,886.71875,-989.74609375,0.0
1732199475.9890785,-844.23828125,-1000.0,714.84375,-999.51171875,0.0
1732199475.992984,-763.671875,-1000.0,471.6796875,-1000.0,0.0
1732199475.9968991,-727.05078125,-1000.0,449.21875,-1000.0,0.0
1732199476.0008047,-676.26953125,-1000.0,394.53125,-1000.0,0.0
1732199476.0047102,-608.3984375,-1000.0,42.96875,-1000.0,0.0
1732199476.0086157,-557.6171875,-1000.0,-465.8203125,-1000.0,0.0
1732199476.0125213,-509.765625,-1000.0,-804.6875,-1000.0,0.0
1732199476.0164268,-457.03125,-1000.0,-876.953125,-1000.0,0.0
1732199476.0203323,-454.58984375,-1000.0,-917.96875,-1000.0,0.0
1732199476.0242379,-483.88671875,-1000.0,-978.02734375,-1000.0,0.0
1732199476.0281434,-492.1875,-1000.0,-968.75,-1000.0,0.0
1732199476.032049,-489.2578125,-1000.0,-910.15625,-1000.0,0.0
1732199476.0359545,-470.21484375,-1000.0,-929.6875,-1000.0,0.0
1732199476.03986,-427.24609375,-1000.0,-894.53125,-990.72265625,0.0
1732199476.0437748,-384.27734375,-1000.0,-858.3984375,-1000.0,0.0
1732199476.0476804,-394.53125,-1000.0,-821.2890625,-918.9453125,0.0
1732199476.051586,-383.30078125,-1000.0,-770.99609375,-604.4921875,0.0
1732199476.0554914,-341.796875,-1000.0,-667.48046875,-200.68359375,0.0
1732199476.059397,-302.734375,-1000.0,-511.71875,255.37109375,0.0
1732199476.0633025,-261.71875,-1000.0,-442.3828125,530.76171875,0.0
1732199476.067208,-229.4921875,-1000.0,-320.80078125,595.21484375,0.0
1732199476.0711136,-186.03515625,-1000.0,-323.73046875,641.6015625,0.0
1732199476.0750191,-178.22265625,-1000.0,23.92578125,780.76171875,0.0
1732199476.0789247,-191.89453125,-1000.0,543.9453125,933.59375,0.0
1732199476.0828302,-220.21484375,-1000.0,618.65234375,976.5625,0.0
1732199476.0867357,-237.79296875,-1000.0,719.23828125,930.17578125,0.0
1732199476.0906496,-202.63671875,-1000.0,846.19140625,897.4609375,0.0
1732199476.0945551,-208.0078125,-1000.0,870.60546875,952.1484375,0.0
1732199476.0984607,-189.453125,-1000.0,868.1640625,970.703125,0.0
1732199476.1023664,-198.73046875,-1000.0,814.453125,963.8671875,0.0
1732199476.106272,-263.671875,-1000.0,732.421875,969.7265625,0.0
1732199476.1101775,-214.84375,-1000.0,20.99609375,908.203125,0.0
1732199476.114083,-113.28125,-1000.0,-886.71875,843.75,0.0
1732199476.1179886,-114.2578125,-1000.0,-995.1171875,909.1796875,0.0
1732199476.1218941,-136.23046875,-1000.0,-948.2421875,956.54296875,0.0
1732199476.1257997,-87.890625,-1000.0,-931.15234375,813.4765625,0.0
1732199476.1297052,-39.0625,-1000.0,-920.41015625,616.2109375,0.0
1732199476.1336107,-12.20703125,-1000.0,-878.90625,513.18359375,0.0
1732199476.137524,-36.1328125,-1000.0,-679.6875,555.6640625,0.0
1732199476.1414294,-32.71484375,-1000.0,-463.8671875,637.6953125,0.0
1732199476.145335,18.06640625,-1000.0,-259.27734375,581.54296875,0.0
1732199476.1492405,61.03515625,-1000.0,83.49609375,489.74609375,0.0
1732199476.153146,59.5703125,-1000.0,318.84765625,458.49609375,0.0
1732199476.1570516,73.2421875,-1000.0,419.43359375,438.4765625,0.0
1732199476.160957,151.3671875,-1000.0,426.7578125,479.4921875,0.0
1732199476.1648626,167.48046875,-1000.0,574.70703125,399.4140625,0.0
1732199476.1687682,104.4921875,-1000.0,828.125,235.83984375,0.0
1732199476.1726737,53.22265625,-1000.0,788.57421875,160.15625,0.0
1732199476.1765792,39.0625,-1000.0,722.65625,224.609375,0.0
1732199476.1804848,50.29296875,-1000.0,818.359375,342.28515625,0.0
1732199476.1843977,77.1484375,-997.55859375,846.19140625,291.50390625,0.0
1732199476.1883032,64.94140625,-1000.0,833.984375,224.609375,0.0
1732199476.1922088,22.94921875,-981.4453125,847.65625,234.375,0.0
1732199476.1961143,39.55078125,-879.8828125,854.00390625,318.359375,0.0
1732199476.2000198,87.40234375,-716.30859375,856.93359375,425.78125,0.0
1732199476.2039254,74.21875,-715.8203125,854.98046875,456.54296875,0.0
1732199476.207831,-2.9296875,-544.921875,863.76953125,405.76171875,0.0
1732199476.2117364,-33.69140625,-104.4921875,890.625,309.08203125,0.0
1732199476.2156422,-10.25390625,221.6796875,917.48046875,300.78125,0.0
1732199476.2195477,32.2265625,316.40625,926.7578125,396.97265625,0.0
1732199476.2234533,29.296875,235.3515625,931.640625,235.83984375,0.0
1732199476.2273588,-18.5546875,152.83203125,913.0859375,-254.8828125,0.0
1732199476.2312753,23.4375,-100.09765625,870.60546875,-539.55078125,0.0
1732199476.235181,37.109375,-331.54296875,850.5859375,-370.60546875,0.0
1732199476.2390866,8.30078125,-360.3515625,812.5,-8.7890625,0.0
1732199476.2429922,32.2265625,-392.08984375,653.80859375,206.54296875,0.0
1732199476.2468977,54.6875,-504.8828125,426.26953125,126.953125,0.0
1732199476.2508032,56.640625,-558.59375,42.48046875,-49.31640625,0.0
1732199476.2547088,64.94140625,-498.53515625,-323.2421875,-82.51953125,0.0
1732199476.2586143,41.50390625,-310.546875,-432.12890625,0.48828125,0.0
1732199476.2625198,47.36328125,-216.30859375,-526.3671875,40.52734375,0.0
1732199476.2664254,61.03515625,-227.5390625,-653.80859375,-115.234375,0.0
1732199476.270331,41.9921875,-75.1953125,-760.7421875,-271.97265625,0.0
1732199476.2742364,53.7109375,40.52734375,-862.79296875,-291.015625,0.0
1732199476.2781525,95.703125,-39.0625,-879.39453125,-206.0546875,0.0
1732199476.282058,123.046875,-109.86328125,-865.72265625,-114.74609375,0.0
1732199476.2859635,102.05078125,-152.34375,-831.0546875,-178.7109375,0.0
1732199476.2898693,88.8671875,-372.0703125,-817.3828125,-336.9140625,0.0
1732199476.2937748,81.54296875,-768.5546875,-860.3515625,-411.62109375,0.0
1732199476.2976804,31.73828125,-1000.0,-818.84765625,-446.2890625,0.0
1732199476.301586,27.34375,-991.69921875,-699.21875,-611.81640625,0.0
1732199476.3054914,-18.5546875,-996.58203125,-625.48828125,-899.4140625,0.0
1732199476.309397,-129.8828125,-1000.0,-682.12890625,-1000.0,0.0
1732199476.3133025,-296.875,-1000.0,-714.84375,-992.67578125,0.0
1732199476.317208,-474.12109375,-1000.0,-579.1015625,-1000.0,0.0
1732199476.3211136,-630.859375,-1000.0,-645.01953125,-1000.0,0.0
1732199476.3250291,-877.44140625,-1000.0,-684.5703125,-1000.0,0.0
1732199476.3289347,-1000.0,-1000.0,-617.67578125,-1000.0,0.0
1732199476.3328402,-995.1171875,-979.00390625,-633.30078125,-1000.0,0.0
1732199476.3367457,-998.53515625,-1000.0,-553.22265625,-1000.0,0.0
1732199476.3406513,-1000.0,-803.22265625,-336.9140625,-1000.0,0.0
1732199476.3445568,-1000.0,-97.16796875,-173.33984375,-1000.0,0.0
1732199476.3484623,-1000.0,639.16015625,-28.3203125,-1000.0,0.0
1732199476.3523679,-1000.0,972.16796875,-9.765625,-1000.0,0.0
1732199476.3562734,-1000.0,955.078125,-86.42578125,-1000.0,0.0
1732199476.360179,-1000.0,962.890625,34.1796875,-1000.0,0.0
1732199476.3640845,-1000.0,969.7265625,209.9609375,-1000.0,0.0
1732199476.36799,-1000.0,967.7734375,214.35546875,-1000.0,0.0
1732199476.371905,-1000.0,967.7734375,269.04296875,-1000.0,0.0
1732199476.3758106,-1000.0,967.7734375,405.76171875,-1000.0,0.0
1732199476.3797162,-1000.0,967.7734375,523.92578125,-1000.0,0.0
1732199476.3836217,-1000.0,967.7734375,568.359375,-1000.0,0.0
1732199476.3875272,-1000.0,967.7734375,645.01953125,-1000.0,0.0
1732199476.3914328,-1000.0,967.7734375,806.15234375,-1000.0,0.0
1732199476.3953383,-1000.0,967.7734375,858.3984375,-1000.0,0.0
1732199476.3992438,-1000.0,967.7734375,860.83984375,-1000.0,0.0
1732199476.4031494,-1000.0,967.7734375,877.44140625,-1000.0,0.0
1732199476.407055,-1000.0,967.7734375,913.0859375,-1000.0,0.0
1732199476.4109604,-1000.0,967.7734375,930.6640625,-1000.0,0.0
1732199476.414866,-1000.0,967.7734375,940.4296875,-1000.0,0.0
1732199476.4187806,-1000.0,967.7734375,949.21875,-1000.0,0.0
1732199476.422686,-1000.0,967.7734375,953.125,-1000.0,0.0
1732199476.4265916,-1000.0,967.7734375,953.125,-1000.0,0.0
1732199476.4304972,-1000.0,967.28515625,956.54296875,-1000.0,0.0
1732199476.4344027,-1000.0,967.7734375,959.47265625,-1000.0,0.0
1732199476.4383082,-1000.0,967.7734375,961.42578125,-1000.0,0.0
1732199476.4422138,-1000.0,967.7734375,964.35546875,-1000.0,0.0
1732199476.4461193,-1000.0,967.7734375,965.33203125,-1000.0,0.0
1732199476.4500248,-1000.0,967.7734375,966.796875,-1000.0,0.0
1732199476.4539304,-1000.0,967.7734375,967.7734375,-1000.0,0.0
1732199476.457836,-1000.0,967.7734375,967.7734375,-1000.0,0.0
1732199476.4617414,-1000.0,967.7734375,967.7734375,-1000.0,0.0
1732199476.4656556,-1000.0,967.7734375,967.7734375,-1000.0,0.0
1732199476.469561,-1000.0,967.7734375,967.7734375,-1000.0,0.0
1732199476.4734666,-1000.0,967.7734375,967.7734375,-1000.0,0.0
1732199476.4773722,-1000.0,967.7734375,967.7734375,-1000.0,0.0
1732199476.4812777,-1000.0,967.7734375,967.7734375,-990.234375,0.0
1732199476.4851832,-1000.0,967.7734375,967.7734375,-996.09375,0.0
1732199476.4890888,-1000.0,967.7734375,967.7734375,-949.70703125,0.0
1732199476.4929945,-1000.0,967.7734375,967.7734375,-479.00390625,0.0
1732199476.4969,-1000.0,967.7734375,967.7734375,339.84375,0.0
1732199476.5008056,-1000.0,967.7734375,967.28515625,889.16015625,0.0
1732199476.5047112,-1000.0,967.7734375,967.28515625,965.8203125,0.0
1732199476.5086167,-995.1171875,967.7734375,967.7734375,955.56640625,0.0
1732199476.5125299,-951.171875,967.7734375,966.796875,969.7265625,0.0
1732199476.5164354,-1000.0,967.7734375,963.8671875,967.7734375,0.0
1732199476.520341,-153.80859375,967.28515625,961.42578125,967.28515625,0.0
1732199476.5242465,999.51171875,967.28515625,958.984375,967.28515625,0.0
1732199476.5281522,949.70703125,967.28515625,954.58984375,967.7734375,0.0
1732199476.5320578,942.3828125,967.28515625,947.265625,967.7734375,0.0
1732199476.5359633,973.6328125,967.7734375,937.98828125,967.7734375,0.0
1732199476.5398688,966.796875,967.7734375,935.05859375,967.28515625,0.0
1732199476.5437744,966.796875,967.28515625,930.17578125,967.28515625,0.0
1732199476.54768,966.796875,967.28515625,866.2109375,967.7734375,0.0
1732199476.5515854,966.796875,967.7734375,786.1328125,967.28515625,0.0
1732199476.555491,966.796875,966.796875,744.140625,967.28515625,0.0
1732199476.5594037,966.796875,964.35546875,708.0078125,967.7734375,0.0
1732199476.5633092,966.796875,971.6796875,648.4375,967.7734375,0.0
1732199476.5672147,966.796875,907.2265625,597.16796875,967.28515625,0.0
1732199476.5711203,966.796875,777.83203125,562.5,967.7734375,0.0
1732199476.5750258,966.796875,669.921875,514.6484375,967.7734375,0.0
1732199476.5789313,966.796875,559.5703125,454.1015625,967.7734375,0.0
1732199476.5828369,966.796875,472.65625,414.55078125,967.28515625,0.0
1732199476.5867424,966.796875,396.484375,389.6484375,967.28515625,0.0
1732199476.590648,966.796875,308.10546875,346.6796875,967.28515625,0.0
1732199476.5945535,966.796875,220.703125,304.19921875,967.28515625,0.0
1732199476.598459,966.796875,145.01953125,280.2734375,967.28515625,0.0
1732199476.6023645,966.796875,72.75390625,264.16015625,967.7734375,0.0
1732199476.6062815,966.796875,-12.6953125,219.7265625,967.7734375,0.0
1732199476.610187,966.796875,-92.7734375,179.6875,967.28515625,0.0
1732199476.6140926,966.796875,-154.78515625,155.76171875,967.28515625,0.0
1732199476.6179981,966.796875,-218.75,126.46484375,967.7734375,0.0
1732199476.6219037,966.796875,-289.55078125,87.890625,967.28515625,0.0
1732199476.6258092,966.796875,-348.6328125,37.59765625,967.28515625,0.0
1732199476.6297147,966.796875,-403.3203125,-1.46484375,967.7734375,0.0
1732199476.6336203,966.796875,-449.70703125,-26.85546875,967.7734375,0.0
1732199476.6375258,966.796875,-494.62890625,-55.17578125,967.7734375,0.0
1732199476.6414313,966.796875,-559.08203125,-105.95703125,967.28515625,0.0
1732199476.6453369,966.796875,-596.6796875,-137.6953125,967.7734375,0.0
1732199476.6492424,966.796875,-620.60546875,-155.2734375,967.28515625,0.0
1732199476.6531587,966.796875,-665.0390625,-209.47265625,967.7734375,0.0
1732199476.6570642,966.796875,-696.77734375,-231.93359375,967.7734375,0.0
1732199476.6609697,966.796875,-706.54296875,-215.8203125,967.28515625,0.0
1732199476.6648753,966.796875,-715.33203125,-239.74609375,967.7734375,0.0
1732199476.6687808,966.796875,-732.91015625,-294.43359375,967.7734375,0.0
1732199476.6726863,966.796875,-740.72265625,-325.68359375,967.7734375,0.0
1732199476.6765919,966.796875,-727.05078125,-321.77734375,967.7734375,0.0
1732199476.6804976,966.796875,-716.30859375,-317.87109375,967.28515625,0.0
1732199476.6844032,966.796875,-726.07421875,-354.98046875,967.28515625,0.0
1732199476.6883087,966.796875,-717.7734375,-391.6015625,967.7734375,0.0
1732199476.6922143,967.28515625,-683.59375,-382.8125,967.7734375,0.0
1732199476.6961198,966.796875,-675.78125,-394.04296875,967.7734375,0.0
1732199476.7000353,966.796875,-678.22265625,-412.59765625,967.28515625,0.0
1732199476.7039409,966.796875,-667.96875,-413.57421875,967.28515625,0.0
1732199476.7078464,966.796875,-638.671875,-417.96875,967.28515625,0.0
1732199476.711752,966.796875,-625.9765625,-437.01171875,967.7734375,0.0
1732199476.7156575,966.796875,-603.515625,-447.75390625,967.7734375,0.0
1732199476.719563,966.796875,-559.5703125,-460.9375,967.28515625,0.0
1732199476.7234685,966.796875,-522.94921875,-472.65625,967.7734375,0.0
1732199476.727374,967.28515625,-480.95703125,-476.5625,967.7734375,0.0
1732199476.7312796,966.796875,-454.58984375,-506.8359375,967.7734375,0.0
1732199476.7351851,966.796875,-412.59765625,-496.09375,967.7734375,0.0
1732199476.7390907,966.796875,-361.81640625,-459.9609375,967.7734375,0.0
1732199476.7429962,966.796875,-344.7265625,-476.5625,967.7734375,0.0
1732199476.7469113,966.796875,-317.3828125,-493.1640625,967.28515625,0.0
1732199476.7508168,968.26171875,-281.73828125,-486.328125,967.28515625,0.0
1732199476.7547224,962.890625,-272.4609375,-475.5859375,967.7734375,0.0
1732199476.758628,966.796875,-290.52734375,-468.26171875,967.7734375,0.0
1732199476.7625334,952.63671875,-331.0546875,-441.40625,964.84375,0.0
1732199476.766439,776.85546875,-401.3671875,-403.3203125,973.14453125,0.0
1732199476.7703445,537.109375,-492.1875,-363.28125,952.1484375,0.0
1732199476.77425,395.01953125,-616.69921875,-335.44921875,922.36328125,0.0
1732199476.7781556,355.95703125,-771.484375,-303.22265625,960.9375,0.0
1732199476.782061,410.15625,-924.8046875,-246.09375,966.796875,0.0
1732199476.7859666,430.6640625,-1000.0,-223.14453125,849.609375,0.0
1732199476.7898722,479.4921875,-997.0703125,-218.26171875,710.44921875,0.0
1732199476.7937865,610.3515625,-999.51171875,-201.66015625,665.0390625,0.0
1732199476.797692,749.0234375,-1000.0,-179.19921875,706.0546875,0.0
1732199476.8015976,900.87890625,-1000.0,-172.8515625,776.3671875,0.0
1732199476.8055031,964.84375,-1000.0,-174.31640625,714.84375,0.0
1732199476.8094087,964.35546875,-1000.0,-185.05859375,582.03125,0.0
1732199476.8133142,966.30859375,-1000.0,-206.54296875,555.17578125,0.0
1732199476.8172197,967.28515625,-1000.0,-218.75,601.5625,0.0
1732199476.8211253,966.796875,-1000.0,-264.16015625,649.90234375,0.0
1732199476.8250308,967.28515625,-1000.0,-307.6171875,583.0078125,0.0
1732199476.8289363,966.796875,-1000.0,-358.88671875,427.24609375,0.0
1732199476.8328419,966.796875,-1000.0,-468.75,371.58203125,0.0
1732199476.8367474,967.28515625,-1000.0,-559.08203125,438.96484375,0.0
1732199476.8406615,962.890625,-1000.0,-604.4921875,514.16015625,0.0
1732199476.844567,975.5859375,-1000.0,-657.71484375,493.1640625,0.0
1732199476.8484726,909.1796875,-1000.0,-722.65625,379.39453125,0.0
1732199476.8523781,817.3828125,-1000.0,-762.6953125,327.1484375,0.0
1732199476.8562837,740.72265625,-1000.0,-782.2265625,374.0234375,0.0
1732199476.8601892,581.0546875,-1000.0,-806.640625,412.59765625,0.0
1732199476.8640947,456.54296875,-1000.0,-823.2421875,380.859375,0.0
1732199476.8680003,309.5703125,-1000.0,-824.21875,261.23046875,0.0
1732199476.8719058,182.12890625,-1000.0,-800.29296875,130.859375,0.0
1732199476.8758113,126.953125,-1000.0,-775.390625,133.7890625,0.0
1732199476.8797169,123.046875,-1000.0,-754.8828125,170.41015625,0.0
1732199476.8836224,214.84375,-1000.0,-737.79296875,137.6953125,0.0
1732199476.8875358,352.05078125,-1000.0,-713.8671875,90.8203125,0.0
1732199476.8914413,496.58203125,-1000.0,-700.1953125,32.71484375,0.0
1732199476.8953469,574.70703125,-1000.0,-687.01171875,68.84765625,0.0
1732199476.8992524,650.390625,-1000.0,-645.5078125,204.1015625,0.0
1732199476.903158,718.26171875,-1000.0,-619.62890625,241.69921875,0.0
1732199476.9070635,736.328125,-1000.0,-619.140625,190.91796875,0.0
1732199476.910969,746.09375,-1000.0,-622.0703125,125.9765625,0.0
1732199476.9148746,723.14453125,-1000.0,-591.796875,75.68359375,0.0
1732199476.91878,726.5625,-1000.0,-545.41015625,135.25390625,0.0
1732199476.9226856,763.671875,-1000.0,-536.1328125,193.84765625,0.0
1732199476.9265912,743.65234375,-1000.0,-532.2265625,128.90625,0.0
1732199476.9304967,710.44921875,-1000.0,-515.625,79.58984375,0.0
1732199476.9344094,684.08203125,-1000.0,-488.76953125,105.46875,0.0
1732199476.938315,681.640625,-1000.0,-484.86328125,200.1953125,0.0
1732199476.9422204,705.56640625,-1000.0,-484.86328125,259.27734375,0.0
1732199476.946126,716.30859375,-1000.0,-474.12109375,183.10546875,0.0
1732199476.9500315,713.37890625,-1000.0,-482.421875,109.375,0.0
1732199476.953937,666.015625,-1000.0,-502.44140625,111.328125,0.0
1732199476.9578426,643.06640625,-1000.0,-491.69921875,209.9609375,0.0
1732199476.9617481,645.01953125,-1000.0,-457.51953125,267.578125,0.0
1732199476.9656537,651.3671875,-1000.0,-468.26171875,232.91015625,0.0
1732199476.9695592,670.8984375,-1000.0,-482.91015625,176.7578125,0.0
1732199476.9734647,676.7578125,-1000.0,-467.28515625,123.046875,0.0
1732199476.9773703,697.265625,-1000.0,-449.21875,194.3359375,0.0
1732199476.981287,717.7734375,-1000.0,-441.40625,274.90234375,0.0
1732199476.9851925,748.046875,-1000.0,-434.5703125,238.28125,0.0
1732199476.989098,797.36328125,-1000.0,-411.1328125,182.6171875,0.0
1732199476.9930036,767.578125,-1000.0,-391.11328125,152.34375,0.0
1732199476.9969091,669.921875,-1000.0,-383.30078125,180.17578125,0.0
1732199477.0008147,677.24609375,-1000.0,-370.1171875,258.7890625,0.0
1732199477.0047204,674.31640625,-1000.0,-347.16796875,257.8125,0.0
1732199477.008626,601.07421875,-1000.0,-320.80078125,164.55078125,0.0
1732199477.0125315,548.33984375,-1000.0,-289.55078125,112.79296875,0.0
1732199477.016437,554.19921875,-1000.0,-259.27734375,151.3671875,0.0
1732199477.0203426,514.6484375,-1000.0,-206.54296875,190.91796875,0.0
1732199477.0242481,455.078125,-1000.0,-157.2265625,147.94921875,0.0
1732199477.0281644,433.59375,-1000.0,-136.23046875,55.6640625,0.0
1732199477.03207,383.7890625,-1000.0,-113.28125,-4.39453125,0.0
1732199477.0359755,357.421875,-1000.0,-70.3125,20.99609375,0.0
1732199477.039881,388.671875,-1000.0,-32.2265625,67.87109375,0.0
1732199477.0437865,415.0390625,-1000.0,-3.90625,19.53125,0.0
1732199477.047692,338.37890625,-1000.0,34.1796875,-172.8515625,0.0
1732199477.0515976,242.67578125,-1000.0,68.359375,-417.96875,0.0
1732199477.0555031,175.29296875,-1000.0,94.23828125,-562.98828125,0.0
1732199477.0594087,97.65625,-1000.0,105.95703125,-616.2109375,0.0
1732199477.0633142,62.01171875,-1000.0,128.90625,-741.69921875,0.0
1732199477.0672197,-29.78515625,-1000.0,159.1796875,-932.12890625,0.0
1732199477.0711253,-231.4453125,-1000.0,152.83203125,-964.84375,0.0
1732199477.0750408,-404.296875,-985.3515625,145.99609375,-863.28125,0.0
1732199477.0789464,-525.87890625,-1000.0,152.83203125,-723.6328125,0.0
1732199477.082852,-650.390625,-841.30859375,152.34375,-637.20703125,0.0
1732199477.0867574,-820.3125,-308.10546875,131.34765625,-642.08984375,0.0
1732199477.090663,-967.28515625,312.98828125,115.234375,-659.1796875,0.0
1732199477.0945685,-1000.0,831.0546875,105.46875,-600.09765625,0.0
1732199477.098474,-997.55859375,974.609375,109.375,-425.29296875,0.0
1732199477.1023798,-1000.0,954.58984375,121.58203125,-301.7578125,0.0
1732199477.1062853,-1000.0,968.75,123.53515625,-312.01171875,0.0
1732199477.1101909,-1000.0,968.26171875,180.6640625,-329.1015625,0.0
1732199477.1140964,-1000.0,967.7734375,251.953125,-331.54296875,0.0
1732199477.118002,-1000.0,967.7734375,291.50390625,-264.16015625,0.0
1732199477.1219168,-1000.0,967.7734375,356.4453125,-150.87890625,0.0
1732199477.1258223,-1000.0,967.7734375,433.59375,-141.6015625,0.0
1732199477.1297278,-1000.0,967.7734375,489.2578125,-184.5703125,0.0
1732199477.1336334,-1000.0,967.7734375,540.52734375,-163.0859375,0.0
1732199477.137539,-1000.0,967.7734375,608.88671875,-86.9140625,0.0
1732199477.1414444,-1000.0,967.7734375,677.734375,-17.578125,0.0
1732199477.14535,-1000.0,967.7734375,756.8359375,-17.578125,0.0
1732199477.1492558,-1000.0,967.7734375,818.84765625,-37.109375,0.0
1732199477.1531613,-1000.0,967.7734375,881.34765625,0.48828125,0.0
1732199477.1570668,-1000.0,967.7734375,951.171875,104.98046875,0.0
1732199477.1609724,-1000.0,967.28515625,957.03125,204.58984375,0.0
1732199477.164878,-1000.0,967.7734375,954.58984375,200.1953125,0.0
1732199477.1687925,-1000.0,967.7734375,957.03125,141.11328125,0.0
1732199477.172698,-1000.0,967.7734375,956.0546875,81.0546875,0.0
1732199477.1766036,-979.00390625,967.7734375,950.68359375,158.203125,0.0
1732199477.180509,-989.74609375,967.7734375,950.1953125,272.94921875,0.0
1732199477.1844146,-984.86328125,967.7734375,937.98828125,250.0,0.0
1732199477.1883202,94.23828125,967.7734375,882.8125,197.265625,0.0
1732199477.1922257,999.51171875,967.7734375,821.2890625,176.26953125,0.0
1732199477.1961312,937.5,967.7734375,757.32421875,233.3984375,0.0
1732199477.2000368,952.63671875,967.7734375,710.44921875,309.08203125,0.0
1732199477.2039423,971.19140625,967.28515625,666.50390625,340.8203125,0.0
1732199477.2078478,966.796875,967.28515625,596.6796875,298.33984375,0.0
1732199477.2117534,966.796875,967.28515625,527.83203125,220.21484375,0.0
1732199477.2156672,966.796875,967.28515625,469.7265625,261.23046875,0.0
1732199477.2195728,966.796875,967.28515625,426.7578125,365.72265625,0.0
1732199477.2234783,966.796875,967.7734375,375.9765625,387.6953125,0.0
1732199477.2273839,966.796875,967.7734375,329.58984375,330.56640625,0.0
1732199477.2312894,966.796875,967.7734375,287.59765625,249.0234375,0.0
1732199477.235195,966.796875,967.28515625,234.86328125,232.421875,0.0
1732199477.2391005,966.796875,967.28515625,190.4296875,313.4765625,0.0
1732199477.243006,967.28515625,967.7734375,155.76171875,335.9375,0.0
1732199477.2469115,967.28515625,967.28515625,132.32421875,270.99609375,0.0
1732199477.250817,966.796875,967.28515625,86.9140625,206.54296875,0.0
1732199477.2547226,966.796875,967.7734375,41.9921875,188.96484375,0.0
1732199477.2586281,966.796875,966.796875,20.99609375,270.99609375,0.0
1732199477.2625418,966.796875,964.35546875,-3.90625,328.61328125,0.0
1732199477.2664473,966.796875,972.65625,-42.96875,287.59765625,0.0
1732199477.2703528,966.796875,887.6953125,-80.56640625,234.86328125,0.0
1732199477.2742584,966.796875,757.8125,-108.3984375,242.1875,0.0
1732199477.278164,966.796875,688.4765625,-142.578125,301.26953125,0.0
1732199477.2820694,966.796875,612.3046875,-180.6640625,288.0859375,0.0
1732199477.285975,966.796875,499.0234375,-226.07421875,229.98046875,0.0
1732199477.2898805,966.796875,422.36328125,-264.6484375,159.1796875,0.0
1732199477.293786,966.796875,368.1640625,-291.50390625,95.21484375,0.0
1732199477.2976916,966.796875,247.55859375,-345.703125,143.5546875,0.0
1732199477.301597,966.796875,97.65625,-391.11328125,249.0234375,0.0
1732199477.3055027,966.796875,-54.6875,-421.38671875,212.890625,0.0
1732199477.3094153,966.796875,-197.75390625,-460.9375,75.68359375,0.0
1732199477.3133209,966.796875,-380.37109375,-509.27734375,-6.8359375,0.0
1732199477.3172264,966.796875,-559.5703125,-537.109375,53.22265625,0.0
1732199477.321132,966.796875,-734.375,-548.33984375,139.6484375,0.0
1732199477.3250375,967.28515625,-930.17578125,-572.265625,100.09765625,0.0
1732199477.328943,967.28515625,-1000.0,-610.83984375,54.6875,0.0
1732199477.3328485,967.28515625,-995.60546875,-637.6953125,34.66796875,0.0
1732199477.336754,967.28515625,-1000.0,-630.859375,70.80078125,0.0
1732199477.3406596,966.796875,-1000.0,-641.6015625,161.1328125,0.0
1732199477.3445652,966.796875,-1000.0,-686.03515625,187.01171875,0.0
1732199477.3484707,966.796875,-1000.0,-722.16796875,101.07421875,0.0
1732199477.3523762,966.796875,-1000.0,-766.11328125,-12.6953125,0.0
1732199477.3562932,966.796875,-1000.0,-823.2421875,40.0390625,0.0
1732199477.3601987,967.28515625,-1000.0,-863.76953125,143.5546875,0.0
1732199477.3641043,966.796875,-1000.0,-897.94921875,141.6015625,0.0
1732199477.3680098,967.28515625,-1000.0,-941.40625,72.265625,0.0
1732199477.3719153,967.28515625,-1000.0,-984.375,1.953125,0.0
1732199477.3758209,967.28515625,-1000.0,-994.62890625,24.4140625,0.0
1732199477.3797264,967.28515625,-1000.0,-996.09375,100.5859375,0.0
1732199477.3836322,966.796875,-1000.0,-1000.0,111.81640625,0.0
1732199477.3875377,966.796875,-1000.0,-1000.0,38.57421875,0.0
1732199477.3914433,967.28515625,-1000.0,-1000.0,-6.34765625,0.0
1732199477.3953488,967.28515625,-1000.0,-1000.0,44.43359375,0.0
1732199477.3992543,967.28515625,-1000.0,-1000.0,139.16015625,0.0
1732199477.4031706,967.28515625,-1000.0,-1000.0,160.64453125,0.0
1732199477.4070761,967.28515625,-1000.0,-1000.0,81.0546875,0.0
1732199477.4109817,967.28515625,-1000.0,-1000.0,9.765625,0.0
1732199477.4148872,967.28515625,-1000.0,-1000.0,18.06640625,0.0
1732199477.4187927,967.28515625,-1000.0,-1000.0,101.5625,0.0
1732199477.4226983,967.28515625,-1000.0,-1000.0,175.29296875,0.0
1732199477.4266038,967.28515625,-1000.0,-1000.0,114.74609375,0.0
1732199477.4305093,967.28515625,-1000.0,-1000.0,32.71484375,0.0
1732199477.4344149,967.28515625,-1000.0,-1000.0,66.89453125,0.0
1732199477.4383204,967.28515625,-1000.0,-1000.0,136.71875,0.0
1732199477.442226,966.796875,-1000.0,-1000.0,161.1328125,0.0
1732199477.4461315,967.28515625,-1000.0,-1000.0,125.0,0.0
1732199477.4500473,967.28515625,-1000.0,-1000.0,75.68359375,0.0
1732199477.4539528,965.33203125,-1000.0,-1000.0,74.21875,0.0
1732199477.4578583,970.703125,-1000.0,-1000.0,164.0625,0.0
1732199477.4617639,944.3359375,-1000.0,-1000.0,264.6484375,0.0
1732199477.4656694,904.296875,-1000.0,-1000.0,231.4453125,0.0
1732199477.469575,871.58203125,-1000.0,-1000.0,106.93359375,0.0
1732199477.4734805,814.453125,-1000.0,-1000.0,70.3125,0.0
1732199477.477386,777.34375,-1000.0,-1000.0,109.86328125,0.0
1732199477.4812915,775.87890625,-1000.0,-1000.0,158.203125,0.0
1732199477.485197,739.2578125,-1000.0,-1000.0,158.69140625,0.0
1732199477.4891026,675.78125,-1000.0,-1000.0,92.7734375,0.0
1732199477.4930081,579.58984375,-1000.0,-1000.0,47.36328125,0.0
1732199477.4969232,466.30859375,-1000.0,-1000.0,110.3515625,0.0
1732199477.5008287,399.4140625,-1000.0,-1000.0,187.98828125,0.0
1732199477.5047343,355.95703125,-1000.0,-1000.0,133.7890625,0.0
1732199477.5086398,360.3515625,-1000.0,-1000.0,74.21875,0.0
1732199477.5125453,376.46484375,-1000.0,-1000.0,37.59765625,0.0
1732199477.516451,414.0625,-1000.0,-1000.0,60.546875,0.0
1732199477.5203564,467.28515625,-1000.0,-1000.0,124.0234375,0.0
1732199477.524262,498.53515625,-1000.0,-1000.0,91.30859375,0.0
1732199477.5281675,485.83984375,-1000.0,-1000.0,13.671875,0.0
1732199477.532073,479.00390625,-1000.0,-1000.0,-11.71875,0.0
1732199477.5359786,467.28515625,-1000.0,-1000.0,37.59765625,0.0
1732199477.539884,436.03515625,-1000.0,-1000.0,109.375,0.0
1732199477.5437987,462.890625,-1000.0,-1000.0,118.65234375,0.0
1732199477.5477042,504.39453125,-1000.0,-1000.0,61.03515625,0.0
1732199477.5516098,485.3515625,-1000.0,-1000.0,-8.30078125,0.0
1732199477.5555153,445.3125,-1000.0,-999.0234375,6.8359375,0.0
1732199477.5594208,412.59765625,-1000.0,-998.53515625,67.87109375,0.0
1732199477.5633264,382.8125,-1000.0,-999.51171875,90.8203125,0.0
1732199477.567232,367.1875,-1000.0,-997.55859375,33.69140625,0.0
1732199477.5711374,301.26953125,-1000.0,-999.0234375,-53.22265625,0.0
1732199477.575043,229.98046875,-1000.0,-993.65234375,-36.1328125,0.0
1732199477.5789485,218.26171875,-1000.0,-985.83984375,34.66796875,0.0
1732199477.582854,232.91015625,-1000.0,-987.79296875,63.96484375,0.0
1732199477.5867596,251.953125,-1000.0,-985.83984375,9.27734375,0.0
1732199477.5906737,230.46875,-1000.0,-982.91015625,-66.89453125,0.0
1732199477.5945792,229.98046875,-1000.0,-978.02734375,-41.015625,0.0
1732199477.5984848,234.86328125,-1000.0,-977.05078125,52.734375,0.0
1732199477.6023903,261.71875,-1000.0,-972.65625,80.078125,0.0
1732199477.6062958,292.48046875,-1000.0,-969.23828125,29.78515625,0.0
1732199477.6102014,296.875,-1000.0,-969.23828125,-20.01953125,0.0
1732199477.614107,292.96875,-1000.0,-974.609375,-49.31640625,0.0
1732199477.6180124,229.98046875,-1000.0,-960.9375,15.13671875,0.0
1732199477.621918,230.95703125,-1000.0,-935.546875,70.80078125,0.0
1732199477.6258235,224.12109375,-1000.0,-946.77734375,42.96875,0.0
1732199477.629729,178.7109375,-1000.0,-946.2890625,-20.99609375,0.0
1732199477.6336346,163.57421875,-1000.0,-943.84765625,-54.6875,0.0
1732199477.637548,121.58203125,-1000.0,-937.01171875,19.53125,0.0
1732199477.6414535,82.03125,-996.58203125,-925.29296875,96.19140625,0.0
1732199477.6453593,90.8203125,-987.3046875,-926.26953125,74.70703125,0.0
1732199477.6492648,135.25390625,-943.359375,-919.43359375,-0.9765625,0.0
1732199477.6531703,185.05859375,-908.203125,-923.828125,-30.2734375,0.0
1732199477.657076,207.03125,-886.23046875,-922.8515625,48.33984375,0.0
1732199477.6609814,233.3984375,-885.7421875,-922.36328125,146.97265625,0.0
1732199477.664887,253.90625,-830.078125,-903.80859375,131.8359375,0.0
1732199477.6687925,272.4609375,-757.32421875,-887.20703125,57.12890625,0.0
1732199477.672698,305.6640625,-774.90234375,-910.64453125,45.8984375,0.0
1732199477.6766036,286.1328125,-720.703125,-893.5546875,66.40625,0.0
1732199477.680509,272.4609375,-640.13671875,-861.328125,131.34765625,0.0
1732199477.684422,277.83203125,-620.1171875,-858.3984375,155.76171875,0.0
1732199477.6883276,272.94921875,-629.39453125,-875.9765625,84.9609375,0.0
1732199477.692233,237.3046875,-605.95703125,-890.625,25.390625,0.0
1732199477.6961386,238.28125,-546.38671875,-866.69921875,59.08203125,0.0
1732199477.7000442,273.92578125,-489.2578125,-840.8203125,135.25390625,0.0
1732199477.7039497,272.94921875,-485.83984375,-873.046875,163.0859375,0.0
1732199477.7078552,262.6953125,-442.3828125,-875.9765625,127.9296875,0.0
1732199477.7117608,235.3515625,-331.0546875,-836.9140625,64.453125,0.0
1732199477.7156663,224.609375,-282.71484375,-834.9609375,95.703125,0.0
1732199477.7195718,225.09765625,-264.6484375,-825.68359375,212.890625,0.0
1732199477.7234774,228.02734375,-225.5859375,-793.9453125,225.09765625,0.0
1732199477.727383,220.21484375,-208.49609375,-779.78515625,120.60546875,0.0
1732199477.7312999,189.94140625,-211.9140625,-784.1796875,64.94140625,0.0
1732199477.7352054,166.015625,-182.12890625,-777.83203125,94.23828125,0.0
1732199477.739111,212.40234375,-144.04296875,-743.65234375,180.17578125,0.0
1732199477.7430165,192.87109375,-116.2109375,-708.984375,202.1484375,0.0
1732199477.746922,149.4140625,-125.0,-723.14453125,150.87890625,0.0
1732199477.7508276,141.11328125,-147.4609375,-743.1640625,134.765625,0.0
1732199477.754733,96.6796875,-137.20703125,-729.98046875,138.671875,0.0
1732199477.7586389,99.12109375,-83.49609375,-681.640625,163.0859375,0.0
1732199477.7625444,98.14453125,-50.78125,-644.53125,173.33984375,0.0
1732199477.76645,84.47265625,-95.21484375,-664.55078125,148.92578125,0.0
1732199477.7703555,110.3515625,-77.63671875,-657.2265625,84.9609375,0.0
1732199477.774261,135.25390625,-49.31640625,-638.18359375,62.01171875,0.0
1732199477.778177,152.83203125,-66.89453125,-631.8359375,122.55859375,0.0
1732199477.7820826,173.33984375,-63.4765625,-613.76953125,174.31640625,0.0
1732199477.7859883,169.43359375,-47.36328125,-601.07421875,173.828125,0.0
1732199477.7898939,136.23046875,-37.109375,-594.23828125,107.91015625,0.0
1732199477.7937994,115.72265625,-66.40625,-612.3046875,100.09765625,0.0
1732199477.797705,126.46484375,-71.2890625,-605.95703125,151.85546875,0.0
1732199477.8016105,104.98046875,-5.37109375,-545.8984375,144.04296875,0.0
1732199477.805516,33.69140625,32.2265625,-516.6015625,135.25390625,0.0
1732199477.8094215,31.25,-48.828125,-558.10546875,101.5625,0.0
1732199477.813327,17.08984375,-87.890625,-580.56640625,48.828125,0.0
1732199477.8172326,12.6953125,8.30078125,-511.71875,71.77734375,0.0
1732199477.8211381,47.36328125,26.85546875,-479.4921875,156.73828125,0.0
1732199477.825054,19.53125,-6.8359375,-500.0,135.7421875,0.0
1732199477.8289595,6.8359375,-8.7890625,-511.23046875,14.6484375,0.0
1732199477.832865,-12.6953125,-4.8828125,-506.8359375,-26.85546875,0.0
1732199477.8367705,-46.38671875,-17.08984375,-497.55859375,24.90234375,0.0
1732199477.840676,-40.52734375,-19.53125,-475.09765625,106.93359375,0.0
1732199477.8445816,3.41796875,-15.625,-460.9375,131.34765625,0.0
1732199477.8484871,50.29296875,-20.5078125,-459.47265625,97.16796875,0.0
1732199477.8523927,48.828125,-29.296875,-465.33203125,5.859375,0.0
1732199477.8562982,0.48828125,-59.5703125,-485.3515625,-19.04296875,0.0
1732199477.8602037,79.1015625,-0.9765625,-427.734375,29.78515625,0.0
1732199477.8641093,201.171875,63.4765625,-365.234375,27.34375,0.0
1732199477.8680148,184.5703125,0.48828125,-403.80859375,3.90625,0.0
1732199477.87193,208.49609375,-35.64453125,-433.10546875,-6.8359375,0.0
1732199477.8758354,282.71484375,-6.34765625,-413.57421875,25.390625,0.0
1732199477.879741,294.43359375,21.97265625,-378.90625,87.890625,0.0
1732199477.8836465,290.0390625,2.44140625,-381.34765625,92.28515625,0.0
1732199477.887552,353.515625,-20.01953125,-399.4140625,64.453125,0.0
1732199477.8914576,424.31640625,-29.78515625,-402.34375,38.57421875,0.0
1732199477.895363,412.109375,-0.9765625,-390.625,29.296875,0.0
1732199477.8992686,284.66796875,-6.34765625,-391.11328125,79.58984375,0.0
1732199477.9031742,187.98828125,-13.18359375,-379.8828125,117.67578125,0.0
1732199477.9070797,192.3828125,56.640625,-336.9140625,87.40234375,0.0
1732199477.9109852,192.3828125,27.34375,-353.02734375,-17.08984375,0.0
1732199477.914891,154.296875,-26.85546875,-378.90625,-62.01171875,0.0
1732199477.9188054,171.875,9.765625,-346.6796875,38.0859375,0.0
1732199477.922711,175.29296875,52.734375,-310.546875,82.51953125,0.0
1732199477.9266167,129.39453125,22.94921875,-327.1484375,29.296875,0.0
1732199477.9305222,136.71875,-15.625,-354.4921875,6.34765625,0.0
1732199477.9344277,110.83984375,-11.71875,-353.515625,15.625,0.0
1732199477.9383333,31.25,8.30078125,-332.51953125,39.55078125,0.0
1732199477.9422388,56.640625,43.9453125,-307.12890625,47.36328125,0.0
1732199477.9461443,97.65625,1.953125,-339.35546875,17.08984375,0.0
1732199477.9500499,89.35546875,17.08984375,-335.44921875,-6.8359375,0.0
1732199477.9539554,55.17578125,52.24609375,-311.03515625,-13.18359375,0.0
1732199477.957861,98.14453125,17.08984375,-330.56640625,19.53125,0.0
1732199477.9617665,193.84765625,48.828125,-306.15234375,54.19921875,0.0
1732199477.965685,261.23046875,64.453125,-290.0390625,41.015625,0.0
1732199477.9695904,317.3828125,50.29296875,-304.6875,-14.16015625,0.0
1732199477.973496,377.9296875,11.23046875,-341.796875,-16.6015625,0.0
1732199477.9774015,448.73046875,22.94921875,-330.56640625,47.8515625,0.0
1732199477.981307,457.51953125,69.82421875,-278.3203125,106.93359375,0.0
1732199477.9852126,500.0,47.36328125,-278.3203125,126.953125,0.0
1732199477.989118,491.2109375,5.859375,-303.7109375,81.54296875,0.0
1732199477.9930236,394.04296875,-2.44140625,-319.3359375,-12.20703125,0.0
1732199477.9969292,399.4140625,69.82421875,-264.16015625,17.578125,0.0
1732199478.0008347,462.40234375,86.9140625,-231.93359375,109.86328125,0.0
1732199478.0047402,480.95703125,46.38671875,-258.7890625,62.5,0.0
1732199478.008646,437.98828125,36.1328125,-272.94921875,-24.4140625,0.0
1732199478.0125592,461.9140625,22.4609375,-283.203125,-39.55078125,0.0
1732199478.0164647,487.79296875,20.99609375,-273.4375,18.5546875,0.0
1732199478.0203702,541.50390625,27.83203125,-249.51171875,126.46484375,0.0
1732199478.0242758,604.98046875,31.25,-240.72265625,145.01953125,0.0
1732199478.0281813,569.3359375,36.62109375,-242.1875,128.41796875,0.0
1732199478.0320868,595.21484375,8.30078125,-265.13671875,45.41015625,0.0
1732199478.0359924,688.96484375,15.13671875,-267.08984375,-16.6015625,0.0
1732199478.039898,771.484375,63.4765625,-232.91015625,62.98828125,0.0
1732199478.0438037,799.31640625,101.5625,-202.63671875,74.21875,0.0
1732199478.0477092,852.5390625,66.40625,-221.19140625,22.94921875,0.0
1732199478.0516148,963.37890625,-17.08984375,-270.01953125,14.6484375,0.0
1732199478.0555203,865.234375,26.3671875,-239.74609375,44.921875,0.0
1732199478.0594327,644.04296875,98.6328125,-180.6640625,123.53515625,0.0
1732199478.0633383,460.9375,65.91796875,-188.4765625,148.92578125,0.0
1732199478.0672438,234.86328125,34.66796875,-210.9375,91.796875,0.0
1732199478.0711493,29.78515625,39.0625,-217.7734375,52.24609375,0.0
1732199478.075055,-113.28125,48.828125,-210.9375,41.9921875,0.0
1732199478.0789604,-187.98828125,17.08984375,-219.23828125,110.83984375,0.0
1732199478.0828662,-151.3671875,20.5078125,-214.84375,185.546875,0.0
1732199478.0867717,-115.234375,91.30859375,-171.875,122.0703125,0.0
1732199478.0906773,92.7734375,81.0546875,-174.8046875,49.31640625,0.0
1732199478.0945828,403.80859375,30.2734375,-203.125,56.640625,0.0
1732199478.0984883,621.58203125,51.26953125,-183.10546875,133.30078125,0.0
1732199478.1023939,658.69140625,86.9140625,-145.5078125,162.59765625,0.0
1732199478.1063106,812.98828125,70.3125,-156.25,130.37109375,0.0
1732199478.1102161,987.79296875,38.0859375,-187.98828125,96.19140625,0.0
1732199478.1141217,959.47265625,45.8984375,-188.96484375,75.1953125,0.0
1732199478.1180272,966.30859375,74.70703125,-162.109375,109.375,0.0
1732199478.1219327,967.28515625,69.82421875,-148.92578125,161.1328125,0.0
1732199478.1258383,966.796875,33.69140625,-172.8515625,132.8125,0.0
1732199478.1297438,966.796875,25.87890625,-180.17578125,62.01171875,0.0
1732199478.1336493,966.796875,35.64453125,-170.41015625,53.22265625,0.0
1732199478.1375551,966.796875,47.36328125,-165.52734375,110.83984375,0.0
1732199478.1414607,969.7265625,44.921875,-153.80859375,148.4375,0.0
1732199478.1453662,954.1015625,66.89453125,-126.953125,125.48828125,0.0
1732199478.1492717,967.28515625,74.70703125,-130.859375,90.8203125,0.0
1732199478.1531878,954.58984375,19.04296875,-169.921875,56.15234375,0.0
1732199478.1570933,412.59765625,10.25390625,-159.1796875,104.00390625,0.0
1732199478.1609988,-15.13671875,50.29296875,-112.3046875,157.71484375,0.0
1732199478.1649044,-191.89453125,65.4296875,-115.234375,125.9765625,0.0
1732199478.16881,-633.30078125,24.4140625,-153.80859375,88.8671875,0.0
1732199478.1727154,-885.7421875,-21.97265625,-189.94140625,60.546875,0.0
1732199478.176621,-938.96484375,21.97265625,-170.41015625,64.453125,0.0
1732199478.1805265,-997.0703125,83.49609375,-136.23046875,119.62890625,0.0
1732199478.184432,-1000.0,37.59765625,-169.43359375,174.8046875,0.0
1732199478.1883376,-999.0234375,-16.6015625,-192.3828125,176.26953125,0.0
1732199478.192243,-1000.0,24.4140625,-161.62109375,86.9140625,0.0
1732199478.1961486,-1000.0,29.296875,-156.25,65.4296875,0.0
1732199478.2000644,-1000.0,15.625,-142.08984375,142.578125,0.0
1732199478.20397,-1000.0,25.87890625,-126.953125,188.96484375,0.0
1732199478.2078755,-1000.0,27.34375,-134.765625,109.86328125,0.0
1732199478.211781,-1000.0,10.25390625,-173.828125,4.8828125,0.0
1732199478.2156866,-1000.0,-3.90625,-195.80078125,74.21875,0.0
1732199478.219592,-1000.0,22.94921875,-167.96875,172.8515625,0.0
1732199478.2234979,-1000.0,53.22265625,-152.34375,192.3828125,0.0
1732199478.2274034,-1000.0,45.8984375,-160.15625,158.203125,0.0
1732199478.231309,-1000.0,-22.94921875,-195.3125,81.54296875,0.0
1732199478.2352145,-1000.0,8.7890625,-173.33984375,48.828125,0.0
1732199478.23912,-1000.0,91.30859375,-113.28125,128.41796875,0.0
1732199478.2430255,-1000.0,77.63671875,-124.0234375,170.8984375,0.0
1732199478.2469406,-1000.0,97.65625,-132.32421875,79.1015625,0.0
1732199478.2508461,-1000.0,107.91015625,-130.37109375,52.734375,0.0
1732199478.2547517,-1000.0,106.93359375,-142.578125,106.4453125,0.0
1732199478.2586572,-1000.0,109.86328125,-140.625,166.9921875,0.0
1732199478.2625628,-1000.0,129.8828125,-116.69921875,211.42578125,0.0
1732199478.2664683,-999.0234375,130.37109375,-125.0,157.71484375,0.0
1732199478.2703738,-993.65234375,135.7421875,-130.37109375,46.38671875,0.0
1732199478.2742794,-998.046875,103.515625,-151.85546875,-6.8359375,0.0
1732199478.2781851,-868.1640625,90.33203125,-150.390625,65.4296875,0.0
1732199478.2820907,-471.19140625,189.453125,-77.63671875,150.87890625,0.0
1732199478.2859962,-110.83984375,176.26953125,-86.42578125,74.70703125,0.0
1732199478.2899017,202.1484375,109.375,-127.9296875,-54.19921875,0.0
1732199478.293816,516.11328125,100.5859375,-133.30078125,-91.796875,0.0
1732199478.2977216,497.0703125,113.28125,-114.74609375,-26.3671875,0.0
1732199478.3016272,511.71875,118.1640625,-86.42578125,20.99609375,0.0
1732199478.3055327,631.34765625,104.00390625,-83.49609375,10.25390625,0.0
1732199478.3094382,632.8125,77.63671875,-100.09765625,-36.1328125,0.0
1732199478.3133438,750.48828125,48.828125,-119.62890625,-86.42578125,0.0
1732199478.3172493,821.2890625,62.5,-105.95703125,-16.6015625,0.0
1732199478.3211548,887.6953125,41.9921875,-107.91015625,100.09765625,0.0
1732199478.3250604,977.05078125,68.84765625,-89.35546875,50.29296875,0.0
1732199478.3289661,962.890625,125.0,-58.10546875,-61.5234375,0.0
1732199478.3328717,966.796875,75.1953125,-101.5625,-83.984375,0.0
1732199478.3367772,967.28515625,70.3125,-104.98046875,-15.625,0.0
1732199478.3406909,966.796875,105.46875,-62.5,114.2578125,0.0
1732199478.3445964,966.796875,104.98046875,-55.6640625,104.00390625,0.0
1732199478.348502,969.23828125,63.96484375,-91.796875,7.8125,0.0
1732199478.3524075,961.42578125,34.66796875,-116.2109375,-19.04296875,0.0
1732199478.356313,941.40625,54.6875,-101.5625,20.01953125,0.0
1732199478.3602185,982.421875,73.2421875,-77.1484375,95.703125,0.0
1732199478.364124,489.2578125,54.19921875,-84.47265625,127.44140625,0.0
1732199478.3680298,-666.50390625,32.71484375,-103.515625,95.21484375,0.0
1732199478.3719354,-797.36328125,82.51953125,-74.21875,42.48046875,0.0
1732199478.375841,-446.77734375,90.8203125,-61.5234375,48.33984375,0.0
1732199478.3797464,-468.75,71.2890625,-59.5703125,129.8828125,0.0
1732199478.383652,-139.6484375,89.84375,-45.8984375,155.2734375,0.0
1732199478.3875651,88.37890625,96.19140625,-49.8046875,107.91015625,0.0
1732199478.3914707,172.8515625,68.359375,-76.171875,53.22265625,0.0
1732199478.3953762,645.99609375,50.29296875,-89.35546875,57.12890625,0.0
1732199478.3992817,989.2578125,83.0078125,-57.6171875,140.625,0.0
1732199478.4031873,934.5703125,98.6328125,-40.52734375,153.3203125,0.0
